Temperature (C)	Pressure (MPa)	Density (l, kg/m3)	Volume (l, m3/kg)	Internal Energy (l, kJ/mol)	Enthalpy (l, kJ/mol)	Entropy (l, J/mol*K)	Cv (l, J/mol*K)	Cp (l, J/mol*K)	Sound Spd. (l, m/s)	Joule-Thomson (l, K/MPa)	Viscosity (l, uPa*s)	Therm. Cond. (l, W/m*K)	Surf. Tension (l, N/m)	Density (v, kg/m3)	Volume (v, m3/kg)	Internal Energy (v, kJ/mol)	Enthalpy (v, kJ/mol)	Entropy (v, J/mol*K)	Cv (v, J/mol*K)	Cp (v, J/mol*K)	Sound Spd. (v, m/s)	Joule-Thomson (v, K/MPa)	Viscosity (v, uPa*s)	Therm. Cond. (v, W/m*K)
-77.660	0.0060534	733.85	0.0013627	1.1549e-14	0.00014048	0.0000	50.538	73.322	2011.3	-0.21958	570.61	0.61094	0.043948	0.063708	15.697	23.739	25.357	129.71	25.822	34.452	355.26	180.96	6.8379	0.015699
-76.660	0.0065556	732.70	0.0013648	0.073339	0.073492	0.37420	50.546	73.365	2005.1	-0.21914	557.81	0.61087	0.043744	0.068659	14.565	23.763	25.389	129.21	25.861	34.507	356.10	176.52	6.8632	0.015771
-75.660	0.0070929	731.56	0.0013670	0.14672	0.14689	0.74673	50.553	73.410	1998.8	-0.21869	545.43	0.61076	0.043539	0.073929	13.527	23.786	25.420	128.72	25.901	34.565	356.93	172.21	6.8886	0.015844
-74.660	0.0076674	730.41	0.0013691	0.22015	0.22033	1.1176	50.560	73.458	1992.5	-0.21822	533.43	0.61062	0.043333	0.079535	12.573	23.810	25.451	128.23	25.942	34.624	357.76	168.02	6.9142	0.015917
-73.660	0.0082811	729.26	0.0013713	0.29363	0.29382	1.4869	50.566	73.507	1986.3	-0.21773	521.81	0.61045	0.043126	0.085493	11.697	23.833	25.482	127.75	25.985	34.685	358.59	163.97	6.9400	0.015990
-72.660	0.0089360	728.11	0.0013734	0.36716	0.36737	1.8545	50.572	73.559	1980.0	-0.21722	510.55	0.61025	0.042918	0.091821	10.891	23.856	25.513	127.28	26.029	34.748	359.40	160.03	6.9659	0.016065
-71.660	0.0096344	726.95	0.0013756	0.44074	0.44096	2.2206	50.576	73.612	1973.8	-0.21670	499.63	0.61001	0.042708	0.098535	10.149	23.879	25.544	126.81	26.074	34.813	360.22	156.21	6.9919	0.016139
-70.660	0.010379	725.80	0.0013778	0.51437	0.51461	2.5851	50.580	73.666	1967.5	-0.21616	489.06	0.60975	0.042498	0.10565	9.4648	23.902	25.575	126.35	26.120	34.880	361.02	152.50	7.0180	0.016215
-69.660	0.011171	724.65	0.0013800	0.58806	0.58832	2.9482	50.582	73.722	1961.3	-0.21560	478.80	0.60945	0.042287	0.11320	8.8340	23.925	25.606	125.89	26.168	34.949	361.83	148.89	7.0443	0.016291
-68.660	0.012014	723.50	0.0013822	0.66180	0.66208	3.3097	50.584	73.780	1955.1	-0.21503	468.86	0.60912	0.042075	0.12119	8.2518	23.948	25.637	125.44	26.216	35.020	362.62	145.40	7.0707	0.016368
-67.660	0.012910	722.35	0.0013844	0.73560	0.73591	3.6697	50.584	73.839	1948.8	-0.21445	459.22	0.60876	0.041862	0.12964	7.7139	23.971	25.667	125.00	26.267	35.093	363.41	142.00	7.0973	0.016445
-66.660	0.013862	721.19	0.0013866	0.80946	0.80979	4.0283	50.583	73.898	1942.6	-0.21384	449.87	0.60837	0.041648	0.13857	7.2165	23.994	25.698	124.56	26.318	35.168	364.20	138.70	7.1240	0.016523
-65.660	0.014873	720.04	0.0013888	0.88338	0.88374	4.3854	50.581	73.959	1936.4	-0.21323	440.80	0.60795	0.041433	0.14801	6.7562	24.017	25.728	124.12	26.371	35.245	364.98	135.50	7.1507	0.016601
-64.660	0.015945	718.88	0.0013911	0.95736	0.95774	4.7411	50.577	74.020	1930.2	-0.21259	431.99	0.60749	0.041218	0.15798	6.3300	24.039	25.758	123.69	26.425	35.324	365.76	132.39	7.1776	0.016680
-63.660	0.017081	717.72	0.0013933	1.0314	1.0318	5.0954	50.572	74.083	1924.0	-0.21195	423.45	0.60701	0.041001	0.16850	5.9349	24.062	25.788	123.27	26.480	35.405	366.52	129.36	7.2047	0.016760
-62.660	0.018285	716.56	0.0013956	1.1055	1.1059	5.4483	50.566	74.145	1917.9	-0.21129	415.16	0.60649	0.040784	0.17958	5.5684	24.084	25.818	122.85	26.537	35.489	367.29	126.42	7.2318	0.016841
-61.660	0.019559	715.40	0.0013978	1.1797	1.1801	5.7998	50.558	74.209	1911.7	-0.21061	407.11	0.60595	0.040566	0.19127	5.2283	24.107	25.848	122.44	26.595	35.575	368.04	123.56	7.2590	0.016922
-60.660	0.020907	714.24	0.0014001	1.2539	1.2544	6.1499	50.549	74.273	1905.5	-0.20993	399.29	0.60537	0.040347	0.20357	4.9123	24.129	25.878	122.03	26.655	35.663	368.79	120.79	7.2864	0.017004
-59.660	0.022331	713.08	0.0014024	1.3282	1.3287	6.4987	50.538	74.337	1899.3	-0.20923	391.70	0.60477	0.040128	0.21652	4.6185	24.151	25.908	121.63	26.716	35.753	369.54	118.08	7.3138	0.017086
-58.660	0.023836	711.91	0.0014047	1.4026	1.4031	6.8462	50.525	74.402	1893.2	-0.20851	384.32	0.60413	0.039908	0.23014	4.3452	24.173	25.937	121.23	26.778	35.846	370.28	115.46	7.3414	0.017169
-57.660	0.025425	710.74	0.0014070	1.4770	1.4776	7.1924	50.511	74.466	1887.0	-0.20779	377.16	0.60346	0.039687	0.24446	4.0907	24.195	25.966	120.84	26.842	35.941	371.01	112.90	7.3690	0.017253
-56.660	0.027101	709.57	0.0014093	1.5515	1.5521	7.5372	50.496	74.531	1880.8	-0.20705	370.20	0.60276	0.039465	0.25950	3.8536	24.217	25.996	120.45	26.908	36.038	371.74	110.42	7.3968	0.017337
-55.660	0.028868	708.40	0.0014116	1.6260	1.6267	7.8808	50.479	74.597	1874.6	-0.20629	363.43	0.60204	0.039243	0.27528	3.6326	24.239	26.025	120.06	26.974	36.138	372.46	108.00	7.4246	0.017423
-54.660	0.030730	707.23	0.0014140	1.7006	1.7014	8.2231	50.460	74.662	1868.5	-0.20553	356.85	0.60128	0.039020	0.29185	3.4264	24.261	26.054	119.68	27.043	36.240	373.17	105.65	7.4525	0.017509
-53.660	0.032691	706.06	0.0014163	1.7753	1.7761	8.5641	50.440	74.727	1862.3	-0.20475	350.46	0.60050	0.038796	0.30922	3.2339	24.282	26.083	119.31	27.112	36.345	373.88	103.36	7.4806	0.017595
-52.660	0.034755	704.88	0.0014187	1.8500	1.8509	8.9038	50.419	74.793	1856.1	-0.20396	344.24	0.59968	0.038572	0.32743	3.0541	24.304	26.111	118.93	27.183	36.452	374.58	101.13	7.5087	0.017682
-51.660	0.036925	703.70	0.0014211	1.9248	1.9257	9.2423	50.396	74.858	1850.0	-0.20316	338.19	0.59884	0.038347	0.34651	2.8859	24.325	26.140	118.57	27.256	36.561	375.28	98.959	7.5369	0.017771
-50.660	0.039207	702.52	0.0014234	1.9997	2.0007	9.5796	50.371	74.924	1843.8	-0.20234	332.31	0.59797	0.038122	0.36648	2.7287	24.346	26.168	118.20	27.330	36.673	375.96	96.848	7.5651	0.017859
-49.660	0.041604	701.34	0.0014258	2.0746	2.0756	9.9156	50.345	74.989	1837.6	-0.20152	326.59	0.59707	0.037896	0.38737	2.5815	24.368	26.197	117.84	27.406	36.787	376.64	94.792	7.5935	0.017949
-48.660	0.044121	700.15	0.0014283	2.1496	2.1507	10.250	50.318	75.054	1831.4	-0.20068	321.02	0.59614	0.037670	0.40923	2.4436	24.389	26.225	117.49	27.483	36.904	377.32	92.790	7.6219	0.018039
-47.660	0.046763	698.97	0.0014307	2.2247	2.2258	10.584	50.289	75.119	1825.2	-0.19982	315.60	0.59518	0.037443	0.43208	2.3144	24.410	26.253	117.14	27.562	37.024	377.99	90.840	7.6504	0.018130
-46.660	0.049533	697.78	0.0014331	2.2998	2.3010	10.917	50.259	75.184	1819.1	-0.19896	310.33	0.59420	0.037215	0.45595	2.1932	24.431	26.281	116.79	27.642	37.146	378.65	88.941	7.6790	0.018222
-45.660	0.052437	696.58	0.0014356	2.3750	2.3763	11.248	50.228	75.249	1812.9	-0.19808	305.19	0.59319	0.036987	0.48088	2.0795	24.451	26.308	116.45	27.723	37.271	379.30	87.091	7.7076	0.018315
-44.660	0.055480	695.39	0.0014380	2.4503	2.4516	11.578	50.195	75.314	1806.7	-0.19719	300.19	0.59215	0.036759	0.50690	1.9728	24.472	26.336	116.11	27.807	37.398	379.95	85.289	7.7364	0.018408
-43.660	0.058666	694.19	0.0014405	2.5256	2.5270	11.907	50.162	75.379	1800.4	-0.19629	295.32	0.59108	0.036530	0.53405	1.8725	24.493	26.363	115.77	27.891	37.528	380.58	83.533	7.7651	0.018502
-42.660	0.062000	692.99	0.0014430	2.6009	2.6025	12.235	50.127	75.444	1794.2	-0.19537	290.58	0.58999	0.036301	0.56236	1.7782	24.513	26.391	115.44	27.977	37.660	381.22	81.822	7.7940	0.018597
-41.660	0.065489	691.79	0.0014455	2.6764	2.6780	12.561	50.091	75.509	1788.0	-0.19444	285.96	0.58887	0.036071	0.59187	1.6896	24.533	26.418	115.11	28.065	37.796	381.84	80.155	7.8229	0.018693
-40.660	0.069136	690.58	0.0014481	2.7519	2.7536	12.887	50.054	75.573	1781.8	-0.19349	281.45	0.58773	0.035841	0.62261	1.6061	24.553	26.445	114.79	28.154	37.933	382.46	78.530	7.8519	0.018790
-39.660	0.072948	689.37	0.0014506	2.8274	2.8293	13.211	50.015	75.638	1775.5	-0.19254	277.06	0.58655	0.035611	0.65463	1.5276	24.574	26.471	114.47	28.245	38.074	383.07	76.946	7.8809	0.018888
-38.660	0.076930	688.16	0.0014531	2.9031	2.9050	13.534	49.976	75.702	1769.3	-0.19157	272.78	0.58536	0.035380	0.68796	1.4536	24.593	26.498	114.15	28.337	38.217	383.67	75.402	7.9100	0.018986
-37.660	0.081087	686.95	0.0014557	2.9788	2.9808	13.856	49.936	75.767	1763.0	-0.19058	268.61	0.58414	0.035149	0.72264	1.3838	24.613	26.524	113.83	28.430	38.363	384.27	73.897	7.9392	0.019085
-36.660	0.085425	685.73	0.0014583	3.0545	3.0566	14.177	49.896	75.831	1756.7	-0.18958	264.54	0.58289	0.034918	0.75871	1.3180	24.633	26.551	113.52	28.525	38.511	384.85	72.430	7.9684	0.019185
-35.660	0.089950	684.51	0.0014609	3.1303	3.1326	14.497	49.854	75.895	1750.4	-0.18857	260.58	0.58162	0.034686	0.79622	1.2559	24.653	26.577	113.21	28.622	38.663	385.43	71.000	7.9977	0.019286
-34.660	0.094668	683.28	0.0014635	3.2062	3.2086	14.816	49.812	75.960	1744.1	-0.18754	256.71	0.58032	0.034454	0.83519	1.1973	24.672	26.602	112.91	28.720	38.817	386.00	69.605	8.0270	0.019388
-33.660	0.099585	682.06	0.0014662	3.2821	3.2846	15.134	49.768	76.025	1737.8	-0.18650	252.93	0.57900	0.034221	0.87567	1.1420	24.691	26.628	112.61	28.819	38.973	386.57	68.245	8.0564	0.019491
-32.660	0.10471	680.83	0.0014688	3.3581	3.3608	15.450	49.725	76.089	1731.5	-0.18544	249.24	0.57765	0.033989	0.91772	1.0897	24.711	26.654	112.31	28.920	39.133	387.13	66.918	8.0858	0.019595
-31.660	0.11004	679.59	0.0014715	3.4342	3.4369	15.766	49.680	76.154	1725.1	-0.18437	245.65	0.57628	0.033756	0.96136	1.0402	24.730	26.679	112.01	29.022	39.295	387.67	65.625	8.1153	0.019700
-30.660	0.11559	678.36	0.0014741	3.5103	3.5132	16.081	49.635	76.219	1718.8	-0.18328	242.14	0.57489	0.033522	1.0066	0.99340	24.749	26.704	111.72	29.126	39.460	388.21	64.363	8.1448	0.019806
-29.660	0.12136	677.12	0.0014768	3.5865	3.5895	16.394	49.590	76.285	1712.4	-0.18218	238.71	0.57348	0.033289	1.0536	0.94912	24.768	26.729	111.43	29.231	39.628	388.75	63.133	8.1744	0.019913
-28.660	0.12737	675.88	0.0014796	3.6627	3.6659	16.707	49.544	76.350	1706.0	-0.18106	235.36	0.57204	0.033055	1.1023	0.90719	24.786	26.754	111.14	29.337	39.798	389.27	61.932	8.2040	0.020020
-27.660	0.13361	674.63	0.0014823	3.7390	3.7424	17.018	49.498	76.416	1699.6	-0.17992	232.09	0.57058	0.032821	1.1528	0.86746	24.805	26.779	110.86	29.444	39.971	389.79	60.761	8.2336	0.020129
-26.660	0.14010	673.38	0.0014850	3.8154	3.8190	17.329	49.451	76.482	1693.2	-0.17877	228.90	0.56909	0.032587	1.2051	0.82981	24.823	26.803	110.57	29.553	40.148	390.30	59.618	8.2633	0.020239
-25.660	0.14683	672.13	0.0014878	3.8918	3.8956	17.638	49.405	76.548	1686.8	-0.17759	225.77	0.56759	0.032353	1.2593	0.79412	24.841	26.827	110.30	29.664	40.326	390.80	58.504	8.2931	0.020350
-24.660	0.15383	670.87	0.0014906	3.9683	3.9722	17.947	49.357	76.615	1680.3	-0.17641	222.72	0.56606	0.032119	1.3154	0.76025	24.860	26.851	110.02	29.775	40.508	391.29	57.416	8.3229	0.020462
-23.660	0.16109	669.61	0.0014934	4.0449	4.0490	18.254	49.310	76.682	1673.8	-0.17520	219.74	0.56451	0.031884	1.3734	0.72811	24.878	26.875	109.75	29.888	40.693	391.77	56.355	8.3527	0.020574
-22.660	0.16862	668.35	0.0014962	4.1215	4.1258	18.561	49.263	76.750	1667.4	-0.17397	216.83	0.56294	0.031650	1.4335	0.69760	24.896	26.899	109.47	30.002	40.880	392.25	55.319	8.3826	0.020688
-21.660	0.17643	667.08	0.0014991	4.1982	4.2027	18.866	49.215	76.818	1660.9	-0.17273	213.98	0.56136	0.031415	1.4956	0.66861	24.913	26.922	109.21	30.117	41.070	392.72	54.309	8.4125	0.020804
-20.660	0.18452	665.81	0.0015019	4.2749	4.2796	19.171	49.167	76.887	1654.3	-0.17147	211.19	0.55975	0.031180	1.5599	0.64107	24.931	26.945	108.94	30.234	41.263	393.17	53.323	8.4424	0.020920
-19.660	0.19291	664.53	0.0015048	4.3517	4.3567	19.474	49.119	76.956	1647.8	-0.17019	208.46	0.55812	0.030945	1.6263	0.61488	24.948	26.969	108.68	30.351	41.459	393.62	52.360	8.4724	0.021037
-18.660	0.20160	663.25	0.0015077	4.4286	4.4338	19.777	49.072	77.026	1641.3	-0.16889	205.79	0.55647	0.030710	1.6950	0.58997	24.966	26.991	108.42	30.470	41.658	394.07	51.421	8.5024	0.021156
-17.660	0.21060	661.97	0.0015106	4.5055	4.5110	20.079	49.024	77.097	1634.7	-0.16757	203.18	0.55480	0.030475	1.7659	0.56627	24.983	27.014	108.16	30.590	41.859	394.50	50.504	8.5325	0.021275
-16.660	0.21992	660.68	0.0015136	4.5825	4.5882	20.380	48.976	77.168	1628.1	-0.16622	200.62	0.55311	0.030239	1.8392	0.54372	25.000	27.036	107.90	30.711	42.064	394.92	49.608	8.5626	0.021396
-15.660	0.22956	659.39	0.0015165	4.6596	4.6655	20.680	48.929	77.241	1621.5	-0.16486	198.12	0.55140	0.030004	1.9148	0.52224	25.017	27.059	107.65	30.833	42.271	395.34	48.735	8.5927	0.021518
-14.660	0.23954	658.10	0.0015195	4.7367	4.7429	20.979	48.881	77.313	1614.9	-0.16348	195.67	0.54967	0.029769	1.9929	0.50177	25.034	27.080	107.39	30.957	42.482	395.75	47.881	8.6229	0.021642
-13.660	0.24985	656.80	0.0015225	4.8139	4.8204	21.277	48.834	77.387	1608.2	-0.16207	193.27	0.54794	0.029533	2.0735	0.48227	25.050	27.102	107.14	31.081	42.695	396.15	47.048	8.6531	0.021766
-12.660	0.26051	655.50	0.0015256	4.8912	4.8980	21.574	48.787	77.462	1601.6	-0.16064	190.92	0.54618	0.029298	2.1567	0.46368	25.067	27.124	106.90	31.206	42.911	396.54	46.235	8.6833	0.021892
-11.660	0.27154	654.19	0.0015286	4.9685	4.9756	21.870	48.740	77.538	1594.9	-0.15919	188.62	0.54441	0.029062	2.2424	0.44595	25.083	27.145	106.65	31.333	43.130	396.92	45.441	8.7136	0.022019
-10.660	0.28292	652.88	0.0015317	5.0460	5.0533	22.166	48.694	77.614	1588.2	-0.15771	186.36	0.54262	0.028827	2.3309	0.42903	25.099	27.166	106.41	31.460	43.353	397.29	44.666	8.7439	0.022147
-9.6600	0.29468	651.57	0.0015348	5.1234	5.1311	22.461	48.647	77.692	1581.5	-0.15621	184.14	0.54082	0.028592	2.4220	0.41288	25.115	27.187	106.17	31.589	43.578	397.65	43.908	8.7743	0.022277
-8.6600	0.30682	650.25	0.0015379	5.2010	5.2090	22.754	48.601	77.771	1574.7	-0.15469	181.98	0.53900	0.028356	2.5160	0.39746	25.131	27.207	105.93	31.718	43.806	398.01	43.169	8.8047	0.022408
-7.6600	0.31935	648.92	0.0015410	5.2786	5.2870	23.047	48.556	77.851	1568.0	-0.15314	179.85	0.53716	0.028121	2.6128	0.38273	25.146	27.228	105.69	31.848	44.038	398.35	42.446	8.8351	0.022540
-6.6600	0.33228	647.60	0.0015442	5.3563	5.3650	23.339	48.510	77.932	1561.2	-0.15156	177.76	0.53530	0.027885	2.7125	0.36866	25.162	27.248	105.45	31.980	44.272	398.69	41.741	8.8655	0.022674
-5.6600	0.34562	646.26	0.0015474	5.4340	5.4431	23.631	48.466	78.014	1554.4	-0.14996	175.72	0.53343	0.027650	2.8152	0.35521	25.177	27.268	105.22	32.112	44.510	399.02	41.051	8.8960	0.022809
-4.6600	0.35938	644.93	0.0015506	5.5119	5.5214	23.921	48.421	78.098	1547.6	-0.14833	173.71	0.53155	0.027415	2.9210	0.34235	25.192	27.287	104.99	32.245	44.751	399.34	40.378	8.9266	0.022945
-3.6600	0.37356	643.59	0.0015538	5.5898	5.5997	24.211	48.377	78.183	1540.8	-0.14668	171.74	0.52965	0.027180	3.0299	0.33005	25.207	27.307	104.76	32.379	44.995	399.65	39.720	8.9571	0.023083
-2.6600	0.38818	642.24	0.0015570	5.6678	5.6781	24.500	48.334	78.269	1533.9	-0.14499	169.80	0.52773	0.026945	3.1419	0.31827	25.222	27.326	104.53	32.513	45.243	399.95	39.077	8.9877	0.023223
-1.6600	0.40324	640.89	0.0015603	5.7458	5.7565	24.788	48.290	78.357	1527.0	-0.14328	167.90	0.52580	0.026710	3.2572	0.30701	25.237	27.345	104.31	32.649	45.493	400.24	38.449	9.0184	0.023363
-0.66000	0.41876	639.54	0.0015636	5.8240	5.8351	25.075	48.248	78.446	1520.2	-0.14154	166.04	0.52386	0.026475	3.3759	0.29622	25.251	27.364	104.08	32.786	45.747	400.52	37.835	9.0491	0.023506
0.34000	0.43473	638.18	0.0015670	5.9022	5.9138	25.362	48.206	78.537	1513.2	-0.13976	164.21	0.52190	0.026240	3.4979	0.28589	25.265	27.382	103.86	32.923	46.005	400.79	37.235	9.0798	0.023650
1.3400	0.45118	636.81	0.0015703	5.9805	5.9925	25.648	48.164	78.629	1506.3	-0.13796	162.41	0.51993	0.026006	3.6233	0.27599	25.279	27.400	103.64	33.061	46.266	401.06	36.649	9.1106	0.023795
2.3400	0.46811	635.44	0.0015737	6.0589	6.0714	25.933	48.123	78.723	1499.4	-0.13612	160.64	0.51794	0.025771	3.7524	0.26650	25.293	27.418	103.42	33.200	46.530	401.31	36.076	9.1414	0.023942
3.3400	0.48553	634.07	0.0015771	6.1373	6.1504	26.217	48.082	78.819	1492.4	-0.13426	158.90	0.51595	0.025537	3.8850	0.25740	25.307	27.435	103.20	33.340	46.798	401.56	35.515	9.1722	0.024091
4.3400	0.50345	632.69	0.0015806	6.2159	6.2294	26.501	48.042	78.916	1485.4	-0.13236	157.20	0.51394	0.025303	4.0212	0.24868	25.321	27.453	102.98	33.480	47.070	401.79	34.967	9.2031	0.024241
5.3400	0.52188	631.30	0.0015840	6.2945	6.3086	26.784	48.003	79.015	1478.4	-0.13042	155.52	0.51191	0.025069	4.1613	0.24031	25.334	27.470	102.77	33.621	47.345	402.02	34.432	9.2341	0.024393
6.3400	0.54084	629.91	0.0015875	6.3732	6.3878	27.066	47.964	79.116	1471.4	-0.12846	153.86	0.50988	0.024835	4.3052	0.23228	25.347	27.486	102.56	33.763	47.624	402.24	33.908	9.2651	0.024547
7.3400	0.56032	628.52	0.0015910	6.4520	6.4672	27.348	47.926	79.219	1464.4	-0.12645	152.24	0.50783	0.024601	4.4530	0.22457	25.360	27.503	102.34	33.906	47.907	402.44	33.396	9.2961	0.024702
8.3400	0.58034	627.12	0.0015946	6.5309	6.5467	27.629	47.888	79.323	1457.3	-0.12441	150.64	0.50577	0.024368	4.6047	0.21717	25.373	27.519	102.13	34.049	48.193	402.64	32.895	9.3272	0.024859
9.3400	0.60091	625.71	0.0015982	6.6099	6.6262	27.909	47.851	79.430	1450.2	-0.12233	149.07	0.50370	0.024135	4.7606	0.21006	25.385	27.535	101.92	34.194	48.484	402.83	32.405	9.3584	0.025018
10.340	0.62204	624.30	0.0016018	6.6890	6.7059	28.188	47.814	79.539	1443.1	-0.12022	147.52	0.50162	0.023901	4.9206	0.20323	25.398	27.551	101.72	34.338	48.778	403.01	31.925	9.3896	0.025178
11.340	0.64374	622.89	0.0016054	6.7681	6.7857	28.467	47.778	79.650	1436.0	-0.11806	146.00	0.49953	0.023669	5.0849	0.19666	25.410	27.566	101.51	34.484	49.077	403.17	31.456	9.4209	0.025340
12.340	0.66602	621.47	0.0016091	6.8474	6.8656	28.746	47.743	79.763	1428.9	-0.11587	144.50	0.49742	0.023436	5.2535	0.19035	25.422	27.581	101.31	34.630	49.380	403.33	30.997	9.4522	0.025505
13.340	0.68889	620.04	0.0016128	6.9268	6.9457	29.023	47.708	79.878	1421.7	-0.11364	143.02	0.49531	0.023204	5.4264	0.18428	25.433	27.595	101.10	34.778	49.687	403.48	30.548	9.4836	0.025671
14.340	0.71236	618.61	0.0016165	7.0062	7.0258	29.300	47.674	79.995	1414.5	-0.11136	141.57	0.49319	0.022971	5.6039	0.17845	25.445	27.610	100.90	34.925	49.999	403.62	30.109	9.5150	0.025839
15.340	0.73644	617.17	0.0016203	7.0858	7.1061	29.577	47.640	80.115	1407.4	-0.10904	140.13	0.49106	0.022739	5.7860	0.17283	25.456	27.624	100.70	35.074	50.315	403.75	29.678	9.5465	0.026009
16.340	0.76115	615.72	0.0016241	7.1654	7.1865	29.853	47.607	80.238	1400.1	-0.10667	138.72	0.48891	0.022508	5.9728	0.16742	25.467	27.638	100.50	35.223	50.636	403.87	29.257	9.5781	0.026181
17.340	0.78648	614.27	0.0016279	7.2452	7.2670	30.128	47.575	80.362	1392.9	-0.10427	137.33	0.48676	0.022276	6.1644	0.16222	25.478	27.651	100.30	35.373	50.961	403.97	28.845	9.6098	0.026355
18.340	0.81246	612.82	0.0016318	7.3251	7.3476	30.402	47.543	80.490	1385.7	-0.10181	135.96	0.48460	0.022045	6.3608	0.15721	25.489	27.664	100.10	35.523	51.291	404.07	28.441	9.6415	0.026530
19.340	0.83910	611.36	0.0016357	7.4050	7.4284	30.677	47.512	80.619	1378.4	-0.099309	134.60	0.48243	0.021814	6.5622	0.15239	25.499	27.677	99.904	35.675	51.626	404.16	28.046	9.6733	0.026709
20.340	0.86640	609.89	0.0016396	7.4851	7.5093	30.950	47.482	80.752	1371.1	-0.096758	133.27	0.48025	0.021584	6.7687	0.14774	25.509	27.689	99.709	35.827	51.966	404.24	27.659	9.7052	0.026889
21.340	0.89437	608.41	0.0016436	7.5653	7.5903	31.223	47.452	80.887	1363.8	-0.094157	131.95	0.47807	0.021354	6.9804	0.14326	25.519	27.701	99.514	35.980	52.312	404.30	27.279	9.7372	0.027071
22.340	0.92303	606.93	0.0016476	7.6456	7.6715	31.495	47.423	81.025	1356.5	-0.091506	130.65	0.47587	0.021124	7.1973	0.13894	25.529	27.713	99.320	36.133	52.662	404.36	26.908	9.7692	0.027256
23.340	0.95239	605.44	0.0016517	7.7260	7.7528	31.767	47.394	81.166	1349.1	-0.088802	129.37	0.47367	0.020894	7.4197	0.13478	25.538	27.724	99.128	36.287	53.018	404.41	26.544	9.8014	0.027442
24.340	0.98246	603.95	0.0016558	7.8066	7.8343	32.039	47.366	81.310	1341.8	-0.086044	128.11	0.47146	0.020665	7.6475	0.13076	25.548	27.735	98.936	36.442	53.380	404.44	26.187	9.8336	0.027631
25.340	1.0132	602.45	0.0016599	7.8872	7.9159	32.310	47.339	81.457	1334.4	-0.083231	126.86	0.46925	0.020436	7.8809	0.12689	25.557	27.746	98.745	36.598	53.747	404.47	25.837	9.8660	0.027823
26.340	1.0448	600.94	0.0016641	7.9680	7.9976	32.580	47.312	81.607	1327.0	-0.080362	125.63	0.46702	0.020207	8.1201	0.12315	25.565	27.756	98.555	36.754	54.120	404.48	25.494	9.8985	0.028016
27.340	1.0770	599.43	0.0016683	8.0489	8.0795	32.850	47.286	81.760	1319.6	-0.077434	124.41	0.46479	0.019978	8.3650	0.11955	25.574	27.766	98.366	36.912	54.499	404.49	25.158	9.9310	0.028212
28.340	1.1100	597.91	0.0016725	8.1299	8.1615	33.119	47.261	81.917	1312.1	-0.074447	123.21	0.46256	0.019750	8.6160	0.11606	25.582	27.776	98.178	37.070	54.885	404.48	24.829	9.9637	0.028411
29.340	1.1438	596.38	0.0016768	8.2111	8.2437	33.388	47.236	82.077	1304.7	-0.071399	122.02	0.46031	0.019523	8.8730	0.11270	25.590	27.785	97.990	37.228	55.277	404.46	24.506	9.9965	0.028612
30.340	1.1784	594.84	0.0016811	8.2924	8.3261	33.657	47.212	82.240	1297.2	-0.068287	120.84	0.45807	0.019296	9.1362	0.10946	25.597	27.794	97.804	37.388	55.675	404.43	24.189	10.029	0.028816
31.340	1.2137	593.30	0.0016855	8.3738	8.4086	33.925	47.189	82.407	1289.7	-0.065111	119.68	0.45581	0.019069	9.4057	0.10632	25.605	27.802	97.618	37.548	56.080	404.39	23.879	10.062	0.029022
32.340	1.2499	591.75	0.0016899	8.4553	8.4913	34.193	47.166	82.578	1282.2	-0.061869	118.54	0.45355	0.018842	9.6816	0.10329	25.612	27.810	97.432	37.709	56.492	404.34	23.574	10.096	0.029231
33.340	1.2868	590.19	0.0016944	8.5370	8.5741	34.460	47.144	82.752	1274.6	-0.058559	117.40	0.45128	0.018616	9.9641	0.10036	25.619	27.818	97.248	37.871	56.912	404.28	23.275	10.129	0.029443
34.340	1.3246	588.62	0.0016989	8.6188	8.6572	34.727	47.122	82.930	1267.1	-0.055178	116.28	0.44901	0.018390	10.253	0.097529	25.625	27.825	97.064	38.034	57.338	404.20	22.981	10.162	0.029657
35.340	1.3632	587.05	0.0017034	8.7008	8.7404	34.993	47.101	83.113	1259.5	-0.051725	115.17	0.44674	0.018165	10.549	0.094791	25.631	27.832	96.881	38.198	57.773	404.12	22.693	10.196	0.029874
36.340	1.4027	585.47	0.0017080	8.7829	8.8237	35.260	47.081	83.299	1251.9	-0.048198	114.08	0.44446	0.017940	10.853	0.092144	25.637	27.838	96.698	38.363	58.215	404.02	22.410	10.230	0.030094
37.340	1.4430	583.88	0.0017127	8.8652	8.9073	35.525	47.061	83.489	1244.3	-0.044595	112.99	0.44217	0.017715	11.163	0.089584	25.643	27.844	96.516	38.528	58.665	403.91	22.133	10.264	0.030318
38.340	1.4842	582.28	0.0017174	8.9476	8.9910	35.791	47.042	83.684	1236.7	-0.040914	111.92	0.43988	0.017491	11.480	0.087106	25.648	27.850	96.335	38.694	59.123	403.79	21.860	10.298	0.030544
39.340	1.5263	580.67	0.0017221	9.0302	9.0749	36.056	47.024	83.883	1229.0	-0.037151	110.86	0.43759	0.017267	11.805	0.084708	25.653	27.855	96.154	38.862	59.590	403.66	21.593	10.332	0.030773
40.340	1.5692	579.06	0.0017269	9.1129	9.1590	36.320	47.006	84.087	1221.3	-0.033306	109.80	0.43529	0.017044	12.138	0.082388	25.658	27.860	95.973	39.030	60.066	403.52	21.330	10.367	0.031006
41.340	1.6131	577.44	0.0017318	9.1958	9.2434	36.585	46.989	84.296	1213.6	-0.029375	108.76	0.43299	0.016821	12.478	0.080141	25.662	27.864	95.793	39.199	60.551	403.36	21.072	10.401	0.031241
42.340	1.6579	575.80	0.0017367	9.2788	9.3279	36.849	46.972	84.509	1205.9	-0.025355	107.73	0.43068	0.016599	12.826	0.077965	25.666	27.868	95.614	39.369	61.046	403.19	20.818	10.436	0.031480
43.340	1.7037	574.16	0.0017417	9.3620	9.4126	37.113	46.956	84.728	1198.1	-0.021245	106.71	0.42837	0.016377	13.182	0.075858	25.670	27.871	95.435	39.540	61.550	403.01	20.569	10.471	0.031723
44.340	1.7503	572.51	0.0017467	9.4454	9.4975	37.376	46.941	84.952	1190.4	-0.017042	105.70	0.42606	0.016156	13.547	0.073817	25.673	27.874	95.256	39.712	62.065	402.82	20.324	10.506	0.031969
45.340	1.7980	570.85	0.0017518	9.5290	9.5826	37.639	46.927	85.181	1182.6	-0.012742	104.70	0.42374	0.015935	13.920	0.071839	25.676	27.876	95.077	39.886	62.589	402.61	20.083	10.542	0.032218
46.340	1.8466	569.18	0.0017569	9.6127	9.6679	37.902	46.913	85.415	1174.8	-0.0083422	103.71	0.42143	0.015714	14.302	0.069923	25.679	27.878	94.899	40.060	63.125	402.39	19.846	10.578	0.032472
47.340	1.8962	567.50	0.0017621	9.6966	9.7535	38.165	46.899	85.655	1166.9	-0.0038401	102.72	0.41911	0.015494	14.692	0.068065	25.681	27.879	94.722	40.235	63.672	402.16	19.613	10.614	0.032729
48.340	1.9468	565.81	0.0017674	9.7807	9.8393	38.428	46.887	85.902	1159.1	0.00076786	101.75	0.41678	0.015275	15.091	0.066263	25.683	27.880	94.544	40.412	64.230	401.92	19.385	10.650	0.032990
49.340	1.9984	564.12	0.0017727	9.8650	9.9253	38.690	46.875	86.154	1151.2	0.0054850	100.78	0.41446	0.015056	15.500	0.064517	25.685	27.881	94.367	40.589	64.800	401.66	19.159	10.686	0.033255
50.340	2.0510	562.41	0.0017781	9.9494	10.012	38.952	46.864	86.412	1143.3	0.010315	99.822	0.41213	0.014837	15.918	0.062823	25.686	27.880	94.190	40.768	65.382	401.39	18.938	10.723	0.033524
51.340	2.1046	560.69	0.0017835	10.034	10.098	39.214	46.853	86.677	1135.3	0.015261	98.872	0.40980	0.014619	16.345	0.061179	25.687	27.880	94.013	40.948	65.977	401.11	18.720	10.760	0.033797
52.340	2.1593	558.95	0.0017891	10.119	10.185	39.476	46.843	86.949	1127.4	0.020328	97.930	0.40747	0.014402	16.783	0.059585	25.687	27.878	93.836	41.129	66.586	400.81	18.506	10.798	0.034075
53.340	2.2151	557.21	0.0017946	10.204	10.272	39.737	46.834	87.228	1119.4	0.025519	96.995	0.40514	0.014185	17.230	0.058038	25.687	27.877	93.659	41.311	67.208	400.50	18.295	10.835	0.034357
54.340	2.2719	555.46	0.0018003	10.289	10.359	39.999	46.826	87.513	1111.4	0.030839	96.068	0.40280	0.013968	17.688	0.056536	25.687	27.874	93.483	41.494	67.845	400.18	18.087	10.873	0.034644
55.340	2.3298	553.70	0.0018060	10.375	10.446	40.260	46.818	87.807	1103.4	0.036291	95.149	0.40047	0.013752	18.156	0.055078	25.686	27.872	93.306	41.679	68.496	399.84	17.883	10.912	0.034935
56.340	2.3889	551.92	0.0018119	10.461	10.534	40.521	46.811	88.108	1095.3	0.041881	94.236	0.39813	0.013537	18.635	0.053662	25.685	27.868	93.130	41.865	69.162	399.49	17.681	10.950	0.035232
57.340	2.4490	550.13	0.0018177	10.546	10.622	40.782	46.805	88.417	1087.2	0.047614	93.330	0.39579	0.013322	19.125	0.052287	25.683	27.864	92.953	42.052	69.845	399.13	17.483	10.989	0.035533
58.340	2.5103	548.33	0.0018237	10.633	10.711	41.043	46.800	88.735	1079.1	0.053494	92.431	0.39345	0.013108	19.627	0.050952	25.681	27.860	92.777	42.241	70.544	398.75	17.288	11.029	0.035840
59.340	2.5727	546.52	0.0018298	10.719	10.799	41.304	46.795	89.061	1071.0	0.059527	91.539	0.39111	0.012895	20.139	0.049654	25.679	27.854	92.600	42.431	71.260	398.35	17.096	11.069	0.036153
60.340	2.6362	544.69	0.0018359	10.806	10.888	41.565	46.791	89.396	1062.8	0.065717	90.653	0.38877	0.012681	20.664	0.048393	25.676	27.849	92.424	42.623	71.994	397.94	16.906	11.109	0.036470
61.340	2.7010	542.86	0.0018421	10.892	10.977	41.826	46.788	89.741	1054.6	0.072072	89.773	0.38643	0.012469	21.201	0.047168	25.673	27.842	92.247	42.816	72.747	397.52	16.719	11.150	0.036794
62.340	2.7669	541.00	0.0018484	10.980	11.067	42.087	46.786	90.095	1046.4	0.078598	88.899	0.38409	0.012257	21.750	0.045977	25.669	27.835	92.070	43.010	73.519	397.08	16.535	11.191	0.037124
63.340	2.8340	539.14	0.0018548	11.067	11.156	42.348	46.784	90.460	1038.1	0.085299	88.031	0.38175	0.012046	22.312	0.044819	25.665	27.828	91.893	43.206	74.311	396.63	16.354	11.232	0.037460
64.340	2.9023	537.26	0.0018613	11.155	11.247	42.609	46.784	90.835	1029.9	0.092185	87.169	0.37940	0.011835	22.887	0.043693	25.660	27.819	91.715	43.403	75.124	396.16	16.175	11.274	0.037803
65.340	2.9718	535.37	0.0018679	11.242	11.337	42.870	46.784	91.222	1021.5	0.099260	86.313	0.37706	0.011626	23.475	0.042598	25.654	27.810	91.538	43.602	75.960	395.68	15.999	11.317	0.038152
66.340	3.0426	533.46	0.0018746	11.331	11.428	43.131	46.785	91.620	1013.2	0.10653	85.462	0.37472	0.011416	24.077	0.041533	25.649	27.801	91.360	43.802	76.818	395.18	15.825	11.360	0.038508
67.340	3.1147	531.53	0.0018813	11.419	11.519	43.392	46.787	92.030	1004.8	0.11401	84.616	0.37238	0.011208	24.694	0.040496	25.642	27.790	91.181	44.004	77.700	394.66	15.653	11.404	0.038872
68.340	3.1880	529.60	0.0018882	11.508	11.610	43.653	46.790	92.453	996.40	0.12171	83.776	0.37003	0.010999	25.324	0.039488	25.635	27.779	91.002	44.208	78.606	394.13	15.484	11.448	0.039243
69.340	3.2626	527.64	0.0018952	11.597	11.702	43.915	46.794	92.889	987.95	0.12962	82.940	0.36769	0.010792	25.970	0.038506	25.628	27.768	90.823	44.413	79.539	393.58	15.317	11.493	0.039622
70.340	3.3384	525.67	0.0019023	11.686	11.794	44.176	46.799	93.339	979.47	0.13777	82.110	0.36535	0.010585	26.631	0.037551	25.620	27.755	90.643	44.620	80.500	393.02	15.152	11.538	0.040010
71.340	3.4156	523.68	0.0019095	11.776	11.887	44.438	46.806	93.803	970.95	0.14616	81.284	0.36301	0.010379	27.307	0.036620	25.612	27.742	90.463	44.829	81.489	392.44	14.989	11.585	0.040406
72.340	3.4942	521.68	0.0019169	11.866	11.980	44.700	46.813	94.283	962.40	0.15480	80.463	0.36067	0.010174	28.000	0.035715	25.603	27.728	90.283	45.040	82.507	391.84	14.828	11.631	0.040811
73.340	3.5740	519.66	0.0019243	11.956	12.073	44.962	46.821	94.779	953.80	0.16371	79.647	0.35833	0.0099696	28.709	0.034832	25.593	27.713	90.101	45.252	83.557	391.22	14.670	11.679	0.041225
74.340	3.6553	517.62	0.0019319	12.046	12.167	45.225	46.830	95.291	945.17	0.17289	78.834	0.35599	0.0097657	29.435	0.033973	25.583	27.698	89.919	45.466	84.641	390.59	14.513	11.727	0.041649
75.340	3.7378	515.56	0.0019396	12.137	12.261	45.488	46.841	95.821	936.51	0.18236	78.027	0.35365	0.0095625	30.179	0.033136	25.572	27.681	89.737	45.683	85.758	389.94	14.358	11.776	0.042083
76.340	3.8218	513.48	0.0019475	12.229	12.355	45.751	46.853	96.370	927.80	0.19212	77.223	0.35131	0.0093601	30.941	0.032320	25.560	27.664	89.553	45.901	86.912	389.27	14.205	11.826	0.042528
77.340	3.9072	511.39	0.0019555	12.320	12.450	46.014	46.866	96.939	919.04	0.20220	76.423	0.34897	0.0091585	31.721	0.031525	25.548	27.646	89.369	46.121	88.104	388.58	14.054	11.877	0.042985
78.340	3.9940	509.27	0.0019636	12.412	12.546	46.278	46.880	97.528	910.25	0.21261	75.627	0.34663	0.0089575	32.521	0.030749	25.535	27.627	89.184	46.343	89.337	387.87	13.904	11.928	0.043453
79.340	4.0823	507.13	0.0019719	12.505	12.642	46.542	46.896	98.139	901.41	0.22336	74.835	0.34429	0.0087574	33.340	0.029994	25.522	27.607	88.998	46.567	90.612	387.15	13.756	11.980	0.043933
80.340	4.1720	504.97	0.0019803	12.598	12.738	46.807	46.913	98.774	892.53	0.23448	74.046	0.34196	0.0085581	34.180	0.029257	25.508	27.586	88.811	46.793	91.931	386.40	13.610	12.034	0.044427
81.340	4.2631	502.79	0.0019889	12.691	12.835	47.072	46.932	99.432	883.60	0.24597	73.261	0.33962	0.0083595	35.041	0.028538	25.493	27.565	88.623	47.021	93.298	385.64	13.465	12.088	0.044934
82.340	4.3558	500.58	0.0019977	12.785	12.933	47.337	46.952	100.12	874.63	0.25785	72.480	0.33728	0.0081618	35.924	0.027837	25.477	27.542	88.434	47.252	94.715	384.85	13.322	12.144	0.045456
83.340	4.4499	498.36	0.0020066	12.879	13.031	47.604	46.974	100.83	865.61	0.27016	71.701	0.33495	0.0079649	36.829	0.027152	25.461	27.518	88.244	47.485	96.184	384.05	13.181	12.200	0.045993
84.340	4.5456	496.10	0.0020157	12.973	13.129	47.870	46.997	101.57	856.53	0.28290	70.926	0.33261	0.0077688	37.758	0.026485	25.444	27.494	88.052	47.720	97.710	383.22	13.041	12.258	0.046545
85.340	4.6428	493.83	0.0020250	13.068	13.228	48.138	47.022	102.34	847.41	0.29610	70.153	0.33027	0.0075735	38.710	0.025833	25.426	27.468	87.860	47.957	99.295	382.38	12.902	12.317	0.047115
86.340	4.7415	491.52	0.0020345	13.164	13.328	48.406	47.049	103.15	838.23	0.30979	69.384	0.32794	0.0073792	39.688	0.025197	25.407	27.441	87.666	48.197	100.94	381.51	12.764	12.377	0.047703
87.340	4.8418	489.19	0.0020442	13.260	13.428	48.675	47.078	103.99	829.00	0.32399	68.617	0.32560	0.0071857	40.691	0.024575	25.387	27.414	87.470	48.439	102.66	380.62	12.628	12.438	0.048310
88.340	4.9437	486.83	0.0020541	13.356	13.529	48.944	47.109	104.87	819.71	0.33873	67.853	0.32326	0.0069931	41.721	0.023969	25.367	27.385	87.273	48.684	104.44	379.71	12.493	12.501	0.048936
89.340	5.0472	484.44	0.0020642	13.453	13.631	49.215	47.142	105.79	810.37	0.35404	67.091	0.32093	0.0068015	42.779	0.023376	25.345	27.354	87.075	48.931	106.31	378.77	12.360	12.565	0.049584
90.340	5.1523	482.02	0.0020746	13.551	13.733	49.486	47.177	106.75	800.96	0.36995	66.331	0.31859	0.0066107	43.866	0.022797	25.323	27.323	86.874	49.181	108.25	377.81	12.227	12.631	0.050255
91.340	5.2591	479.57	0.0020852	13.649	13.836	49.759	47.214	107.76	791.49	0.38650	65.574	0.31625	0.0064209	44.982	0.022231	25.299	27.290	86.672	49.433	110.28	376.83	12.095	12.698	0.050949
92.340	5.3675	477.09	0.0020960	13.748	13.940	50.032	47.254	108.82	781.96	0.40373	64.818	0.31391	0.0062321	46.130	0.021678	25.275	27.257	86.468	49.689	112.41	375.83	11.965	12.767	0.051669
93.340	5.4776	474.57	0.0021072	13.847	14.044	50.307	47.297	109.94	772.37	0.42168	64.064	0.31157	0.0060443	47.311	0.021137	25.250	27.221	86.263	49.947	114.63	374.79	11.835	12.838	0.052416
94.340	5.5894	472.02	0.0021186	13.947	14.149	50.582	47.342	111.11	762.71	0.44038	63.312	0.30923	0.0058575	48.525	0.020608	25.223	27.185	86.055	50.208	116.96	373.74	11.707	12.910	0.053192
95.340	5.7029	469.43	0.0021303	14.048	14.255	50.859	47.390	112.34	752.98	0.45989	62.561	0.30689	0.0056717	49.774	0.020091	25.196	27.147	85.844	50.472	119.41	372.65	11.579	12.985	0.053999
96.340	5.8182	466.80	0.0021423	14.150	14.362	51.138	47.441	113.65	743.18	0.48027	61.812	0.30454	0.0054870	51.061	0.019585	25.167	27.107	85.632	50.739	121.99	371.54	11.452	13.061	0.054839
97.340	5.9352	464.13	0.0021546	14.252	14.470	51.417	47.495	115.02	733.30	0.50155	61.063	0.30219	0.0053033	52.386	0.019089	25.137	27.066	85.417	51.009	124.69	370.40	11.326	13.140	0.055714
98.340	6.0540	461.41	0.0021673	14.355	14.578	51.698	47.553	116.48	723.35	0.52382	60.316	0.29984	0.0051207	53.751	0.018604	25.106	27.024	85.199	51.283	127.55	369.24	11.201	13.221	0.056627
99.340	6.1745	458.66	0.0021803	14.459	14.688	51.981	47.614	118.03	713.32	0.54713	59.569	0.29749	0.0049393	55.159	0.018130	25.073	26.979	84.979	51.559	130.56	368.04	11.076	13.304	0.057581
100.34	6.2969	455.85	0.0021937	14.564	14.799	52.266	47.679	119.67	703.21	0.57156	58.822	0.29513	0.0047590	56.611	0.017665	25.039	26.933	84.756	51.838	133.75	366.82	10.952	13.390	0.058578
