Temperature (C)	Pressure (MPa)	Density (l, kg/m3)	Volume (l, m3/kg)	Internal Energy (l, kJ/mol)	Enthalpy (l, kJ/mol)	Entropy (l, J/mol*K)	Cv (l, J/mol*K)	Cp (l, J/mol*K)	Sound Spd. (l, m/s)	Joule-Thomson (l, K/MPa)	Viscosity (l, uPa*s)	Therm. Cond. (l, W/m*K)	Surf. Tension (l, N/m)	Density (v, kg/m3)	Volume (v, m3/kg)	Internal Energy (v, kJ/mol)	Enthalpy (v, kJ/mol)	Entropy (v, J/mol*K)	Cv (v, J/mol*K)	Cp (v, J/mol*K)	Sound Spd. (v, m/s)	Joule-Thomson (v, K/MPa)	Viscosity (v, uPa*s)	Therm. Cond. (v, W/m*K)
-100.00	0.0020102	1571.3	0.00063641	7.8431	7.8432	43.668	57.981	91.758	1127.5	-0.42569	896.02	0.14312	0.028240	0.12098	8.2660	29.602	31.039	177.63	34.587	42.993	143.57	125.17	7.2418	0.0044564
-99.000	0.0022053	1568.7	0.00063748	7.9348	7.9349	44.196	57.936	91.756	1122.7	-0.42500	876.86	0.14258	0.028066	0.13198	7.5771	29.636	31.081	177.11	34.702	43.115	143.93	122.84	7.2838	0.0044942
-98.000	0.0024163	1566.0	0.00063855	8.0266	8.0267	44.722	57.892	91.753	1118.0	-0.42429	858.35	0.14204	0.027892	0.14380	6.9540	29.670	31.123	176.59	34.819	43.239	144.28	120.57	7.3258	0.0045322
-97.000	0.0026443	1563.4	0.00063963	8.1183	8.1184	45.244	57.847	91.751	1113.2	-0.42357	840.47	0.14150	0.027718	0.15650	6.3897	29.704	31.165	176.08	34.935	43.363	144.64	118.35	7.3679	0.0045704
-96.000	0.0028903	1560.8	0.00064071	8.2100	8.2102	45.763	57.803	91.750	1108.5	-0.42283	823.18	0.14097	0.027544	0.17013	5.8779	29.738	31.207	175.58	35.052	43.488	144.99	116.19	7.4099	0.0046088
-95.000	0.0031555	1558.1	0.00064180	8.3018	8.3020	46.280	57.759	91.750	1103.7	-0.42208	806.45	0.14043	0.027371	0.18473	5.4132	29.773	31.250	175.09	35.170	43.614	145.34	114.07	7.4520	0.0046474
-94.000	0.0034412	1555.5	0.00064289	8.3935	8.3937	46.793	57.716	91.750	1099.0	-0.42130	790.27	0.13990	0.027198	0.20037	4.9908	29.807	31.292	174.61	35.288	43.740	145.68	112.00	7.4940	0.0046862
-93.000	0.0037484	1552.8	0.00064398	8.4853	8.4855	47.304	57.672	91.750	1094.3	-0.42051	774.61	0.13937	0.027024	0.21709	4.6064	29.841	31.334	174.14	35.406	43.868	146.03	109.98	7.5361	0.0047251
-92.000	0.0040785	1550.2	0.00064508	8.5770	8.5773	47.812	57.630	91.752	1089.5	-0.41969	759.44	0.13884	0.026851	0.23496	4.2561	29.876	31.377	173.67	35.525	43.996	146.37	108.01	7.5781	0.0047643
-91.000	0.0044329	1547.5	0.00064619	8.6688	8.6690	48.317	57.587	91.755	1084.8	-0.41886	744.75	0.13831	0.026678	0.25403	3.9366	29.910	31.419	173.21	35.644	44.126	146.71	106.08	7.6201	0.0048036
-90.000	0.0048130	1544.9	0.00064730	8.7605	8.7608	48.819	57.546	91.758	1080.1	-0.41801	730.51	0.13778	0.026506	0.27437	3.6448	29.945	31.461	172.77	35.763	44.256	147.05	104.20	7.6621	0.0048432
-89.000	0.0052202	1542.2	0.00064841	8.8523	8.8526	49.319	57.504	91.763	1075.4	-0.41713	716.71	0.13725	0.026333	0.29603	3.3780	29.979	31.504	172.32	35.883	44.387	147.38	102.36	7.7042	0.0048829
-88.000	0.0056559	1539.6	0.00064953	8.9440	8.9444	49.816	57.463	91.768	1070.7	-0.41624	703.33	0.13673	0.026161	0.31910	3.1338	30.014	31.546	171.89	36.004	44.519	147.72	100.56	7.7462	0.0049228
-87.000	0.0061219	1536.9	0.00065065	9.0358	9.0361	50.310	57.423	91.775	1066.0	-0.41532	690.34	0.13621	0.025989	0.34362	2.9102	30.048	31.589	171.46	36.125	44.653	148.05	98.803	7.7882	0.0049629
-86.000	0.0066196	1534.3	0.00065178	9.1276	9.1279	50.802	57.384	91.783	1061.3	-0.41437	677.74	0.13569	0.025817	0.36968	2.7050	30.083	31.631	171.05	36.246	44.787	148.37	97.087	7.8301	0.0050032
-85.000	0.0071508	1531.6	0.00065292	9.2193	9.2197	51.291	57.344	91.793	1056.6	-0.41341	665.50	0.13517	0.025645	0.39734	2.5167	30.118	31.674	170.63	36.368	44.922	148.70	95.410	7.8721	0.0050437
-84.000	0.0077173	1528.9	0.00065406	9.3111	9.3116	51.777	57.306	91.803	1051.9	-0.41242	653.62	0.13465	0.025473	0.42669	2.3436	30.153	31.717	170.23	36.491	45.059	149.02	93.771	7.9140	0.0050844
-83.000	0.0083208	1526.2	0.00065520	9.4029	9.4034	52.261	57.268	91.816	1047.2	-0.41140	642.08	0.13413	0.025301	0.45778	2.1845	30.188	31.759	169.83	36.613	45.196	149.35	92.169	7.9560	0.0051253
-82.000	0.0089632	1523.6	0.00065635	9.4947	9.4952	52.743	57.232	91.829	1042.5	-0.41036	630.86	0.13361	0.025130	0.49071	2.0379	30.222	31.802	169.44	36.737	45.335	149.66	90.604	7.9979	0.0051664
-81.000	0.0096464	1520.9	0.00065751	9.5866	9.5871	53.222	57.195	91.845	1037.8	-0.40929	619.96	0.13310	0.024959	0.52555	1.9028	30.257	31.844	169.06	36.861	45.475	149.98	89.075	8.0398	0.0052077
-80.000	0.010372	1518.2	0.00065867	9.6784	9.6790	53.699	57.160	91.861	1033.1	-0.40819	609.36	0.13259	0.024788	0.56238	1.7782	30.292	31.887	168.68	36.986	45.616	150.29	87.580	8.0816	0.0052491
-79.000	0.011143	1515.5	0.00065984	9.7703	9.7709	54.173	57.125	91.880	1028.5	-0.40707	599.05	0.13207	0.024617	0.60129	1.6631	30.327	31.930	168.31	37.111	45.759	150.61	86.119	8.1235	0.0052908
-78.000	0.011961	1512.8	0.00066101	9.8621	9.8628	54.645	57.092	91.900	1023.8	-0.40591	589.01	0.13156	0.024446	0.64237	1.5567	30.362	31.972	167.94	37.236	45.902	150.91	84.691	8.1653	0.0053327
-77.000	0.012828	1510.1	0.00066219	9.9540	9.9548	55.115	57.059	91.922	1019.1	-0.40473	579.24	0.13105	0.024276	0.68570	1.4584	30.397	32.015	167.58	37.363	46.047	151.22	83.295	8.2071	0.0053748
-76.000	0.013746	1507.4	0.00066338	10.046	10.047	55.582	57.027	91.946	1014.4	-0.40352	569.74	0.13055	0.024105	0.73138	1.3673	30.432	32.058	167.23	37.490	46.193	151.52	81.930	8.2489	0.0054171
-75.000	0.014718	1504.7	0.00066457	10.138	10.139	56.047	56.996	91.971	1009.8	-0.40228	560.48	0.13004	0.023935	0.77949	1.2829	30.467	32.100	166.88	37.617	46.341	151.82	80.596	8.2906	0.0054595
-74.000	0.015746	1502.0	0.00066576	10.230	10.231	56.510	56.966	91.999	1005.1	-0.40100	551.45	0.12953	0.023765	0.83013	1.2046	30.503	32.143	166.54	37.745	46.490	152.12	79.292	8.3323	0.0055022
-73.000	0.016833	1499.3	0.00066697	10.322	10.323	56.971	56.937	92.028	1000.4	-0.39970	542.66	0.12903	0.023596	0.88340	1.1320	30.538	32.185	166.20	37.874	46.640	152.41	78.016	8.3740	0.0055451
-72.000	0.017981	1496.6	0.00066818	10.414	10.415	57.430	56.909	92.060	995.77	-0.39836	534.10	0.12853	0.023426	0.93939	1.0645	30.573	32.228	165.87	38.003	46.792	152.71	76.770	8.4157	0.0055882
-71.000	0.019192	1493.9	0.00066939	10.506	10.507	57.886	56.882	92.093	991.10	-0.39699	525.74	0.12802	0.023257	0.99822	1.0018	30.608	32.270	165.55	38.133	46.946	152.99	75.550	8.4573	0.0056315
-70.000	0.020469	1491.2	0.00067061	10.598	10.599	58.341	56.856	92.129	986.44	-0.39559	517.59	0.12752	0.023087	1.0600	0.94342	30.643	32.313	165.23	38.264	47.101	153.28	74.358	8.4989	0.0056750
-69.000	0.021815	1488.4	0.00067184	10.690	10.691	58.793	56.831	92.167	981.78	-0.39416	509.65	0.12702	0.022918	1.1248	0.88908	30.678	32.355	164.91	38.395	47.257	153.56	73.192	8.5404	0.0057187
-68.000	0.023233	1485.7	0.00067308	10.782	10.784	59.243	56.807	92.206	977.13	-0.39268	501.89	0.12653	0.022749	1.1927	0.83844	30.714	32.398	164.60	38.527	47.415	153.84	72.052	8.5820	0.0057627
-67.000	0.024725	1483.0	0.00067432	10.874	10.876	59.692	56.784	92.248	972.47	-0.39118	494.32	0.12603	0.022581	1.2639	0.79121	30.749	32.440	164.30	38.660	47.574	154.12	70.937	8.6235	0.0058068
-66.000	0.026294	1480.2	0.00067557	10.967	10.968	60.138	56.762	92.293	967.81	-0.38964	486.93	0.12553	0.022412	1.3384	0.74714	30.784	32.483	164.00	38.793	47.735	154.39	69.846	8.6649	0.0058512
-65.000	0.027944	1477.5	0.00067682	11.059	11.061	60.582	56.742	92.339	963.16	-0.38806	479.72	0.12504	0.022244	1.4165	0.70599	30.819	32.525	163.70	38.927	47.898	154.66	68.779	8.7063	0.0058957
-64.000	0.029677	1474.7	0.00067809	11.151	11.153	61.025	56.723	92.388	958.50	-0.38645	472.67	0.12454	0.022076	1.4981	0.66752	30.854	32.567	163.41	39.062	48.063	154.93	67.735	8.7477	0.0059405
-63.000	0.031496	1472.0	0.00067936	11.244	11.245	61.465	56.704	92.439	953.85	-0.38480	465.78	0.12405	0.021908	1.5834	0.63155	30.890	32.610	163.13	39.197	48.229	155.19	66.714	8.7891	0.0059855
-62.000	0.033405	1469.2	0.00068064	11.336	11.338	61.904	56.687	92.492	949.20	-0.38311	459.05	0.12356	0.021740	1.6726	0.59788	30.925	32.652	162.85	39.334	48.397	155.45	65.715	8.8304	0.0060307
-61.000	0.035407	1466.4	0.00068192	11.429	11.431	62.341	56.672	92.548	944.54	-0.38138	452.47	0.12307	0.021573	1.7657	0.56635	30.960	32.694	162.57	39.471	48.566	155.71	64.737	8.8716	0.0060761
-60.000	0.037505	1463.7	0.00068321	11.521	11.523	62.776	56.657	92.606	939.89	-0.37962	446.03	0.12258	0.021405	1.8629	0.53680	30.995	32.736	162.30	39.608	48.738	155.96	63.781	8.9129	0.0061217
-59.000	0.039702	1460.9	0.00068451	11.614	11.616	63.210	56.644	92.666	935.24	-0.37782	439.74	0.12209	0.021238	1.9643	0.50909	31.030	32.778	162.03	39.747	48.911	156.21	62.845	8.9541	0.0061676
-58.000	0.042002	1458.1	0.00068582	11.706	11.709	63.641	56.632	92.729	930.59	-0.37597	433.59	0.12160	0.021071	2.0700	0.48309	31.066	32.820	161.77	39.886	49.086	156.46	61.928	8.9952	0.0062137
-57.000	0.044408	1455.3	0.00068714	11.799	11.802	64.071	56.621	92.794	925.94	-0.37409	427.57	0.12112	0.020905	2.1802	0.45867	31.101	32.862	161.51	40.026	49.264	156.70	61.032	9.0363	0.0062600
-56.000	0.046924	1452.5	0.00068846	11.892	11.894	64.499	56.611	92.862	921.29	-0.37216	421.67	0.12063	0.020738	2.2950	0.43573	31.136	32.904	161.25	40.167	49.443	156.94	60.154	9.0774	0.0063065
-55.000	0.049553	1449.7	0.00068979	11.985	11.987	64.926	56.603	92.932	916.64	-0.37019	415.90	0.12015	0.020572	2.4145	0.41416	31.171	32.946	161.00	40.308	49.624	157.18	59.295	9.1185	0.0063533
-54.000	0.052299	1446.9	0.00069113	12.077	12.081	65.351	56.595	93.005	911.99	-0.36818	410.25	0.11966	0.020406	2.5389	0.39387	31.206	32.987	160.75	40.451	49.807	157.41	58.454	9.1595	0.0064002
-53.000	0.055166	1444.1	0.00069248	12.170	12.174	65.774	56.590	93.080	907.34	-0.36613	404.72	0.11918	0.020240	2.6683	0.37478	31.241	33.029	160.51	40.594	49.992	157.64	57.630	9.2004	0.0064475
-52.000	0.058158	1441.3	0.00069383	12.263	12.267	66.195	56.585	93.158	902.69	-0.36404	399.30	0.11870	0.020074	2.8028	0.35679	31.276	33.070	160.27	40.738	50.179	157.87	56.824	9.2414	0.0064949
-51.000	0.061278	1438.4	0.00069520	12.357	12.360	66.616	56.582	93.239	898.04	-0.36190	394.00	0.11822	0.019909	2.9426	0.33983	31.311	33.112	160.03	40.883	50.368	158.09	56.034	9.2822	0.0065426
-50.000	0.064530	1435.6	0.00069657	12.450	12.454	67.034	56.580	93.322	893.39	-0.35971	388.79	0.11774	0.019744	3.0879	0.32385	31.346	33.153	159.79	41.029	50.559	158.30	55.261	9.3231	0.0065905
-49.000	0.067919	1432.8	0.00069796	12.543	12.547	67.451	56.579	93.407	888.74	-0.35749	383.69	0.11726	0.019579	3.2387	0.30876	31.381	33.194	159.57	41.175	50.753	158.52	54.503	9.3639	0.0066386
-48.000	0.071447	1429.9	0.00069935	12.636	12.641	67.867	56.579	93.495	884.09	-0.35521	378.69	0.11678	0.019414	3.3953	0.29453	31.416	33.236	159.34	41.322	50.949	158.73	53.762	9.4047	0.0066870
-47.000	0.075121	1427.0	0.00070075	12.730	12.734	68.281	56.581	93.586	879.43	-0.35289	373.79	0.11630	0.019249	3.5578	0.28108	31.451	33.277	159.12	41.471	51.147	158.93	53.035	9.4455	0.0067356
-46.000	0.078942	1424.2	0.00070216	12.823	12.828	68.694	56.584	93.680	874.78	-0.35052	368.98	0.11583	0.019085	3.7262	0.26837	31.486	33.317	158.90	41.620	51.347	159.13	52.323	9.4862	0.0067844
-45.000	0.082917	1421.3	0.00070358	12.917	12.922	69.105	56.588	93.776	870.13	-0.34811	364.27	0.11535	0.018921	3.9009	0.25635	31.520	33.358	158.68	41.770	51.550	159.33	51.626	9.5268	0.0068335
-44.000	0.087048	1418.4	0.00070501	13.011	13.016	69.515	56.594	93.874	865.48	-0.34564	359.64	0.11488	0.018757	4.0820	0.24498	31.555	33.399	158.47	41.920	51.755	159.53	50.943	9.5675	0.0068829
-43.000	0.091341	1415.5	0.00070645	13.104	13.110	69.923	56.601	93.976	860.82	-0.34313	355.10	0.11440	0.018593	4.2696	0.23422	31.590	33.440	158.26	42.072	51.963	159.71	50.273	9.6081	0.0069325
-42.000	0.095799	1412.6	0.00070790	13.198	13.204	70.330	56.609	94.080	856.17	-0.34057	350.64	0.11393	0.018430	4.4638	0.22402	31.624	33.480	158.05	42.225	52.172	159.90	49.617	9.6487	0.0069823
-41.000	0.10043	1409.7	0.00070936	13.292	13.298	70.736	56.619	94.186	851.52	-0.33796	346.26	0.11346	0.018266	4.6649	0.21437	31.659	33.520	157.84	42.378	52.385	160.08	48.974	9.6893	0.0070324
-40.000	0.10523	1406.8	0.00071083	13.386	13.393	71.140	56.629	94.296	846.86	-0.33529	341.97	0.11299	0.018103	4.8730	0.20521	31.693	33.561	157.64	42.532	52.600	160.26	48.344	9.7298	0.0070827
-39.000	0.11021	1403.9	0.00071231	13.481	13.487	71.544	56.641	94.408	842.21	-0.33258	337.75	0.11251	0.017941	5.0883	0.19653	31.728	33.601	157.44	42.688	52.817	160.43	47.727	9.7703	0.0071333
-38.000	0.11538	1401.0	0.00071380	13.575	13.582	71.945	56.655	94.523	837.55	-0.32981	333.60	0.11204	0.017778	5.3109	0.18829	31.762	33.641	157.25	42.844	53.037	160.60	47.121	9.8108	0.0071841
-37.000	0.12073	1398.0	0.00071530	13.669	13.677	72.346	56.669	94.641	832.89	-0.32699	329.53	0.11157	0.017616	5.5411	0.18047	31.797	33.681	157.05	43.001	53.260	160.76	46.528	9.8513	0.0072352
-36.000	0.12628	1395.1	0.00071681	13.764	13.772	72.746	56.685	94.761	828.24	-0.32411	325.53	0.11111	0.017454	5.7790	0.17304	31.831	33.720	156.86	43.159	53.486	160.92	45.946	9.8917	0.0072866
-35.000	0.13203	1392.1	0.00071834	13.858	13.867	73.144	56.702	94.884	823.58	-0.32118	321.59	0.11064	0.017292	6.0247	0.16598	31.865	33.760	156.68	43.318	53.714	161.07	45.375	9.9321	0.0073382
-34.000	0.13797	1389.1	0.00071987	13.953	13.962	73.541	56.720	95.010	818.92	-0.31820	317.73	0.11017	0.017130	6.2786	0.15927	31.899	33.799	156.49	43.478	53.945	161.22	44.816	9.9726	0.0073901
-33.000	0.14413	1386.2	0.00072142	14.048	14.057	73.937	56.740	95.139	814.26	-0.31516	313.93	0.10970	0.016969	6.5407	0.15289	31.933	33.838	156.31	43.638	54.179	161.37	44.267	10.013	0.0074422
-32.000	0.15050	1383.2	0.00072297	14.143	14.152	74.332	56.760	95.270	809.60	-0.31206	310.19	0.10924	0.016808	6.8113	0.14682	31.967	33.877	156.13	43.800	54.416	161.51	43.729	10.053	0.0074946
-31.000	0.15708	1380.2	0.00072454	14.238	14.248	74.725	56.782	95.405	804.94	-0.30890	306.51	0.10877	0.016647	7.0905	0.14103	32.001	33.916	155.95	43.963	54.655	161.65	43.201	10.094	0.0075473
-30.000	0.16389	1377.2	0.00072612	14.333	14.344	75.118	56.805	95.542	800.28	-0.30568	302.89	0.10830	0.016486	7.3785	0.13553	32.035	33.955	155.77	44.126	54.898	161.78	42.683	10.134	0.0076003
-29.000	0.17092	1374.2	0.00072772	14.429	14.439	75.509	56.830	95.682	795.62	-0.30240	299.34	0.10784	0.016326	7.6756	0.13028	32.068	33.994	155.60	44.291	55.144	161.90	42.175	10.174	0.0076535
-28.000	0.17819	1371.1	0.00072932	14.524	14.535	75.899	56.855	95.825	790.95	-0.29906	295.84	0.10738	0.016166	7.9819	0.12528	32.102	34.032	155.43	44.456	55.393	162.03	41.677	10.215	0.0077070
-27.000	0.18569	1368.1	0.00073094	14.620	14.631	76.289	56.882	95.971	786.29	-0.29566	292.39	0.10691	0.016006	8.2976	0.12052	32.135	34.070	155.26	44.623	55.645	162.14	41.188	10.255	0.0077609
-26.000	0.19344	1365.0	0.00073258	14.715	14.728	76.677	56.910	96.120	781.62	-0.29219	289.00	0.10645	0.015846	8.6230	0.11597	32.169	34.109	155.09	44.790	55.900	162.25	40.709	10.296	0.0078149
-25.000	0.20143	1362.0	0.00073422	14.811	14.824	77.064	56.939	96.271	776.96	-0.28866	285.66	0.10599	0.015687	8.9582	0.11163	32.202	34.146	154.93	44.959	56.159	162.36	40.238	10.336	0.0078693
-24.000	0.20968	1358.9	0.00073588	14.907	14.921	77.451	56.970	96.426	772.29	-0.28506	282.37	0.10552	0.015528	9.3035	0.10749	32.235	34.184	154.77	45.128	56.420	162.46	39.776	10.376	0.0079240
-23.000	0.21819	1355.8	0.00073755	15.004	15.017	77.836	57.001	96.584	767.62	-0.28140	279.13	0.10506	0.015369	9.6591	0.10353	32.269	34.222	154.61	45.298	56.686	162.56	39.323	10.417	0.0079789
-22.000	0.22696	1352.7	0.00073923	15.100	15.114	78.220	57.034	96.744	762.95	-0.27767	275.94	0.10460	0.015211	10.025	0.099749	32.302	34.259	154.45	45.470	56.954	162.65	38.878	10.457	0.0080342
-21.000	0.23600	1349.6	0.00074093	15.196	15.211	78.604	57.068	96.908	758.28	-0.27386	272.80	0.10414	0.015052	10.402	0.096135	32.334	34.296	154.29	45.642	57.227	162.74	38.442	10.498	0.0080898
-20.000	0.24531	1346.5	0.00074265	15.293	15.309	78.986	57.103	97.074	753.61	-0.26999	269.71	0.10368	0.014894	10.790	0.092681	32.367	34.333	154.14	45.815	57.502	162.82	38.013	10.538	0.0081456
-19.000	0.25491	1343.4	0.00074438	15.390	15.406	79.368	57.139	97.244	748.94	-0.26605	266.66	0.10322	0.014737	11.189	0.089376	32.400	34.370	153.98	45.989	57.782	162.90	37.592	10.579	0.0082018
-18.000	0.26479	1340.3	0.00074612	15.487	15.504	79.749	57.176	97.417	744.26	-0.26203	263.65	0.10276	0.014579	11.599	0.086214	32.432	34.406	153.83	46.164	58.065	162.97	37.179	10.619	0.0082583
-17.000	0.27496	1337.1	0.00074788	15.584	15.601	80.128	57.214	97.593	739.59	-0.25793	260.69	0.10230	0.014422	12.021	0.083188	32.465	34.443	153.68	46.340	58.352	163.04	36.774	10.660	0.0083151
-16.000	0.28542	1334.0	0.00074965	15.681	15.699	80.507	57.254	97.772	734.91	-0.25376	257.77	0.10184	0.014265	12.455	0.080290	32.497	34.479	153.54	46.517	58.643	163.10	36.376	10.701	0.0083722
-15.000	0.29620	1330.8	0.00075144	15.778	15.797	80.886	57.294	97.954	730.23	-0.24951	254.89	0.10138	0.014108	12.901	0.077514	32.529	34.515	153.39	46.696	58.937	163.15	35.985	10.741	0.0084297
-14.000	0.30727	1327.6	0.00075324	15.876	15.896	81.263	57.336	98.139	725.56	-0.24518	252.04	0.10092	0.013952	13.359	0.074854	32.562	34.550	153.25	46.875	59.236	163.20	35.601	10.782	0.0084874
-13.000	0.31867	1324.4	0.00075506	15.973	15.994	81.639	57.379	98.328	720.88	-0.24076	249.24	0.10047	0.013796	13.830	0.072305	32.593	34.586	153.10	47.055	59.539	163.25	35.224	10.823	0.0085455
-12.000	0.33038	1321.2	0.00075690	16.071	16.093	82.015	57.423	98.520	716.19	-0.23627	246.48	0.10001	0.013640	14.314	0.069860	32.625	34.621	152.96	47.236	59.846	163.29	34.854	10.864	0.0086040
-11.000	0.34242	1318.0	0.00075875	16.169	16.192	82.390	57.468	98.716	711.51	-0.23168	243.75	0.099550	0.013485	14.811	0.067515	32.657	34.656	152.82	47.418	60.158	163.32	34.490	10.905	0.0086628
-10.000	0.35478	1314.7	0.00076062	16.268	16.291	82.764	57.513	98.914	706.83	-0.22701	241.06	0.099092	0.013330	15.322	0.065266	32.688	34.691	152.69	47.601	60.474	163.35	34.133	10.946	0.0087219
-9.0000	0.36749	1311.5	0.00076251	16.366	16.390	83.138	57.560	99.117	702.14	-0.22225	238.41	0.098635	0.013175	15.846	0.063106	32.720	34.725	152.55	47.785	60.794	163.37	33.783	10.987	0.0087814
-8.0000	0.38054	1308.2	0.00076441	16.465	16.490	83.510	57.609	99.322	697.45	-0.21740	235.79	0.098178	0.013020	16.384	0.061033	32.751	34.759	152.41	47.970	61.119	163.39	33.438	11.029	0.0088412
-7.0000	0.39393	1304.9	0.00076634	16.563	16.589	83.882	57.658	99.532	692.76	-0.21245	233.20	0.097721	0.012866	16.937	0.059042	32.782	34.793	152.28	48.156	61.448	163.40	33.100	11.070	0.0089014
-6.0000	0.40769	1301.6	0.00076828	16.662	16.689	84.254	57.708	99.744	688.07	-0.20741	230.65	0.097264	0.012712	17.504	0.057129	32.813	34.827	152.15	48.343	61.783	163.40	32.768	11.112	0.0089620
-5.0000	0.42180	1298.3	0.00077024	16.761	16.790	84.624	57.759	99.961	683.38	-0.20226	228.13	0.096808	0.012559	18.086	0.055291	32.844	34.860	152.02	48.531	62.122	163.40	32.441	11.153	0.0090229
-4.0000	0.43628	1295.0	0.00077222	16.861	16.890	84.994	57.811	100.18	678.68	-0.19702	225.64	0.096351	0.012405	18.683	0.053524	32.874	34.894	151.89	48.720	62.466	163.39	32.121	11.195	0.0090842
-3.0000	0.45113	1291.6	0.00077421	16.960	16.990	85.364	57.864	100.41	673.98	-0.19167	223.18	0.095895	0.012252	19.296	0.051825	32.905	34.927	151.76	48.909	62.816	163.38	31.806	11.237	0.0091459
-2.0000	0.46636	1288.3	0.00077623	17.060	17.091	85.732	57.918	100.63	669.29	-0.18621	220.75	0.095439	0.012100	19.924	0.050191	32.935	34.959	151.63	49.100	63.171	163.36	31.496	11.279	0.0092080
-1.0000	0.48198	1284.9	0.00077827	17.160	17.192	86.101	57.973	100.86	664.58	-0.18065	218.35	0.094982	0.011948	20.569	0.048618	32.965	34.992	151.50	49.292	63.531	163.34	31.192	11.321	0.0092705
0.0000	0.49798	1281.5	0.00078033	17.260	17.294	86.468	58.029	101.10	659.88	-0.17497	215.98	0.094526	0.011796	21.229	0.047105	32.995	35.024	151.38	49.485	63.897	163.31	30.893	11.363	0.0093334
1.0000	0.51439	1278.1	0.00078240	17.360	17.395	86.835	58.087	101.34	655.17	-0.16917	213.64	0.094070	0.011644	21.907	0.045647	33.025	35.055	151.25	49.679	64.268	163.27	30.600	11.406	0.0093967
2.0000	0.53120	1274.7	0.00078450	17.461	17.497	87.201	58.145	101.58	650.46	-0.16326	211.32	0.093613	0.011493	22.602	0.044244	33.055	35.087	151.13	49.874	64.645	163.22	30.312	11.449	0.0094604
3.0000	0.54842	1271.3	0.00078663	17.562	17.599	87.567	58.204	101.83	645.75	-0.15722	209.03	0.093157	0.011342	23.314	0.042893	33.084	35.118	151.01	50.070	65.029	163.17	30.028	11.491	0.0095245
4.0000	0.56605	1267.8	0.00078877	17.662	17.701	87.932	58.264	102.09	641.04	-0.15106	206.77	0.092701	0.011191	24.044	0.041590	33.113	35.149	150.89	50.267	65.418	163.12	29.750	11.535	0.0095891
5.0000	0.58411	1264.3	0.00079094	17.764	17.804	88.297	58.325	102.34	636.32	-0.14477	204.53	0.092244	0.011041	24.792	0.040335	33.142	35.179	150.77	50.466	65.814	163.06	29.476	11.578	0.0096541
6.0000	0.60259	1260.8	0.00079313	17.865	17.906	88.661	58.386	102.61	631.60	-0.13834	202.32	0.091787	0.010891	25.559	0.039125	33.171	35.210	150.65	50.665	66.217	162.99	29.207	11.621	0.0097195
7.0000	0.62151	1257.3	0.00079534	17.967	18.009	89.025	58.449	102.87	626.87	-0.13177	200.13	0.091331	0.010741	26.345	0.037958	33.200	35.239	150.53	50.865	66.626	162.91	28.943	11.665	0.0097854
8.0000	0.64087	1253.8	0.00079758	18.068	18.113	89.388	58.513	103.14	622.14	-0.12507	197.97	0.090874	0.010592	27.150	0.036833	33.228	35.269	150.41	51.066	67.042	162.83	28.684	11.709	0.0098518
9.0000	0.66068	1250.3	0.00079984	18.170	18.216	89.751	58.578	103.42	617.41	-0.11821	195.83	0.090416	0.010443	27.975	0.035747	33.256	35.298	150.29	51.268	67.465	162.74	28.428	11.753	0.0099187
10.000	0.68094	1246.7	0.00080213	18.273	18.320	90.113	58.643	103.70	612.68	-0.11121	193.71	0.089959	0.010294	28.820	0.034699	33.284	35.327	150.18	51.471	67.896	162.65	28.178	11.798	0.0099860
11.000	0.70167	1243.1	0.00080444	18.375	18.424	90.475	58.710	103.99	607.94	-0.10404	191.62	0.089501	0.010146	29.685	0.033687	33.312	35.356	150.06	51.676	68.334	162.55	27.931	11.843	0.010054
12.000	0.72286	1239.5	0.00080678	18.478	18.528	90.836	58.777	104.28	603.20	-0.096718	189.55	0.089043	0.0099986	30.572	0.032710	33.339	35.384	149.95	51.881	68.781	162.44	27.689	11.888	0.010122
13.000	0.74453	1235.9	0.00080914	18.581	18.633	91.197	58.846	104.58	598.45	-0.089227	187.49	0.088585	0.0098512	31.480	0.031767	33.366	35.412	149.83	52.088	69.235	162.32	27.451	11.934	0.010191
14.000	0.76667	1232.2	0.00081154	18.684	18.738	91.558	58.915	104.88	593.70	-0.081563	185.46	0.088126	0.0097042	32.410	0.030855	33.393	35.439	149.72	52.295	69.697	162.20	27.218	11.979	0.010260
15.000	0.78931	1228.6	0.00081396	18.788	18.843	91.918	58.985	105.19	588.94	-0.073720	183.45	0.087668	0.0095576	33.362	0.029974	33.420	35.466	149.61	52.504	70.169	162.07	26.988	12.026	0.010330
16.000	0.81243	1224.9	0.00081641	18.891	18.949	92.278	59.056	105.51	584.18	-0.065693	181.46	0.087208	0.0094114	34.337	0.029123	33.447	35.493	149.49	52.714	70.649	161.93	26.762	12.072	0.010401
17.000	0.83606	1221.2	0.00081889	18.995	19.054	92.638	59.128	105.83	579.41	-0.057474	179.49	0.086748	0.0092656	35.336	0.028300	33.473	35.519	149.38	52.924	71.138	161.79	26.540	12.119	0.010472
18.000	0.86019	1217.4	0.00082140	19.100	19.161	92.997	59.201	106.16	574.64	-0.049057	177.54	0.086288	0.0091202	36.358	0.027504	33.499	35.545	149.27	53.136	71.637	161.64	26.322	12.166	0.010543
19.000	0.88484	1213.7	0.00082394	19.204	19.267	93.356	59.275	106.50	569.86	-0.040434	175.61	0.085827	0.0089752	37.405	0.026734	33.525	35.570	149.16	53.350	72.146	161.48	26.108	12.214	0.010616
20.000	0.91001	1209.9	0.00082651	19.309	19.374	93.715	59.350	106.84	565.07	-0.031599	173.70	0.085366	0.0088306	38.477	0.025989	33.550	35.595	149.05	53.564	72.666	161.32	25.897	12.262	0.010688
21.000	0.93571	1206.1	0.00082911	19.414	19.481	94.073	59.426	107.19	560.28	-0.022543	171.80	0.084904	0.0086864	39.575	0.025269	33.575	35.620	148.94	53.779	73.196	161.14	25.690	12.311	0.010762
22.000	0.96194	1202.3	0.00083175	19.519	19.588	94.431	59.502	107.55	555.48	-0.013257	169.92	0.084442	0.0085427	40.698	0.024571	33.600	35.644	148.83	53.996	73.737	160.96	25.487	12.360	0.010836
23.000	0.98871	1198.4	0.00083442	19.625	19.696	94.789	59.580	107.92	550.68	-0.0037331	168.06	0.083979	0.0083993	41.849	0.023896	33.625	35.668	148.72	54.214	74.289	160.78	25.287	12.410	0.010911
24.000	1.0160	1194.6	0.00083713	19.731	19.804	95.147	59.658	108.29	545.87	0.0060382	166.21	0.083515	0.0082564	43.027	0.023241	33.649	35.691	148.61	54.433	74.854	160.58	25.091	12.460	0.010986
25.000	1.0439	1190.7	0.00083987	19.837	19.913	95.504	59.737	108.68	541.05	0.016067	164.39	0.083050	0.0081140	44.232	0.022608	33.673	35.714	148.50	54.653	75.431	160.38	24.898	12.511	0.011062
26.000	1.0723	1186.7	0.00084265	19.943	20.021	95.862	59.818	109.07	536.22	0.026363	162.57	0.082585	0.0079720	45.467	0.021994	33.697	35.736	148.39	54.875	76.021	160.17	24.708	12.562	0.011139
27.000	1.1014	1182.8	0.00084547	20.050	20.131	96.219	59.899	109.47	531.39	0.036938	160.78	0.082119	0.0078304	46.730	0.021399	33.720	35.758	148.28	55.097	76.625	159.95	24.521	12.614	0.011216
28.000	1.1309	1178.8	0.00084833	20.157	20.240	96.576	59.981	109.88	526.54	0.047802	158.99	0.081652	0.0076893	48.024	0.020823	33.743	35.779	148.17	55.321	77.243	159.72	24.338	12.667	0.011294
29.000	1.1611	1174.8	0.00085123	20.265	20.350	96.933	60.064	110.30	521.69	0.058969	157.23	0.081185	0.0075487	49.349	0.020264	33.765	35.800	148.07	55.547	77.875	159.49	24.158	12.720	0.011373
30.000	1.1919	1170.7	0.00085416	20.372	20.460	97.290	60.148	110.74	516.83	0.070450	155.47	0.080716	0.0074086	50.705	0.019722	33.788	35.820	147.96	55.774	78.523	159.25	23.981	12.774	0.011453
31.000	1.2232	1166.7	0.00085714	20.480	20.571	97.647	60.233	111.18	511.96	0.082260	153.74	0.080246	0.0072689	52.093	0.019196	33.810	35.840	147.85	56.002	79.187	159.00	23.807	12.828	0.011534
32.000	1.2552	1162.6	0.00086017	20.589	20.682	98.004	60.318	111.63	507.08	0.094412	152.01	0.079775	0.0071297	53.515	0.018686	33.831	35.859	147.74	56.231	79.867	158.74	23.636	12.884	0.011615
33.000	1.2878	1158.4	0.00086324	20.698	20.794	98.361	60.405	112.10	502.19	0.10692	150.30	0.079304	0.0069910	54.971	0.018191	33.852	35.878	147.63	56.462	80.565	158.47	23.468	12.940	0.011697
34.000	1.3210	1154.3	0.00086635	20.807	20.906	98.718	60.493	112.58	497.28	0.11981	148.60	0.078831	0.0068528	56.461	0.017711	33.873	35.896	147.52	56.695	81.282	158.20	23.303	12.997	0.011781
35.000	1.3548	1150.1	0.00086952	20.916	21.018	99.075	60.582	113.08	492.37	0.13308	146.92	0.078357	0.0067151	57.988	0.017245	33.893	35.914	147.41	56.928	82.018	157.91	23.141	13.055	0.011865
36.000	1.3892	1145.8	0.00087273	21.026	21.131	99.432	60.672	113.58	487.44	0.14676	145.25	0.077881	0.0065779	59.551	0.016792	33.913	35.930	147.30	57.164	82.774	157.62	22.982	13.114	0.011950
37.000	1.4243	1141.6	0.00087599	21.136	21.244	99.789	60.763	114.11	482.51	0.16087	143.59	0.077405	0.0064412	61.152	0.016353	33.933	35.947	147.19	57.401	83.551	157.32	22.825	13.173	0.012036
38.000	1.4601	1137.3	0.00087931	21.247	21.358	100.15	60.854	114.65	477.55	0.17543	141.94	0.076927	0.0063051	62.792	0.015926	33.952	35.962	147.08	57.639	84.350	157.01	22.671	13.234	0.012123
39.000	1.4965	1132.9	0.00088268	21.358	21.472	100.50	60.947	115.20	472.59	0.19046	140.30	0.076447	0.0061695	64.472	0.015511	33.970	35.977	146.97	57.880	85.173	156.69	22.520	13.296	0.012211
40.000	1.5336	1128.5	0.00088611	21.469	21.586	100.86	61.041	115.77	467.61	0.20598	138.67	0.075966	0.0060344	66.193	0.015107	33.989	35.992	146.86	58.122	86.021	156.36	22.371	13.359	0.012300
41.000	1.5713	1124.1	0.00088959	21.581	21.702	101.22	61.136	116.37	462.62	0.22202	137.06	0.075484	0.0058999	67.956	0.014715	34.006	36.006	146.75	58.365	86.894	156.02	22.225	13.423	0.012390
42.000	1.6097	1119.6	0.00089314	21.693	21.817	101.58	61.233	116.98	457.62	0.23860	135.46	0.075000	0.0057660	69.762	0.014334	34.023	36.019	146.64	58.611	87.796	155.68	22.081	13.488	0.012481
43.000	1.6489	1115.1	0.00089674	21.805	21.933	101.94	61.330	117.61	452.59	0.25575	133.86	0.074514	0.0056327	71.614	0.013964	34.040	36.031	146.53	58.858	88.726	155.32	21.940	13.554	0.012574
44.000	1.6887	1110.6	0.00090042	21.919	22.050	102.29	61.428	118.26	447.56	0.27350	132.28	0.074026	0.0054999	73.511	0.013603	34.056	36.042	146.41	59.107	89.686	154.96	21.801	13.622	0.012668
45.000	1.7292	1106.0	0.00090416	22.032	22.167	102.65	61.528	118.94	442.50	0.29188	130.70	0.073536	0.0053677	75.457	0.013253	34.072	36.053	146.30	59.359	90.680	154.58	21.664	13.691	0.012763
46.000	1.7704	1101.4	0.00090797	22.146	22.285	103.01	61.629	119.64	437.43	0.31092	129.14	0.073045	0.0052362	77.451	0.012911	34.087	36.063	146.18	59.612	91.707	154.20	21.530	13.762	0.012859
47.000	1.8124	1096.7	0.00091185	22.261	22.403	103.37	61.731	120.36	432.34	0.33066	127.58	0.072551	0.0051052	79.496	0.012579	34.101	36.072	146.07	59.867	92.771	153.80	21.397	13.834	0.012957
48.000	1.8551	1091.9	0.00091580	22.376	22.522	103.73	61.835	121.11	427.24	0.35114	126.03	0.072055	0.0049749	81.593	0.012256	34.115	36.081	145.95	60.125	93.874	153.40	21.267	13.907	0.013056
49.000	1.8985	1087.1	0.00091984	22.491	22.642	104.09	61.939	121.90	422.11	0.37240	124.49	0.071557	0.0048452	83.745	0.011941	34.128	36.088	145.83	60.385	95.018	152.98	21.139	13.983	0.013157
50.000	1.9427	1082.3	0.00092396	22.607	22.762	104.46	62.045	122.71	416.97	0.39449	122.96	0.071057	0.0047162	85.952	0.011634	34.140	36.095	145.71	60.647	96.206	152.56	21.014	14.060	0.013259
51.000	1.9876	1077.4	0.00092816	22.724	22.883	104.82	62.153	123.55	411.80	0.41744	121.44	0.070554	0.0045878	88.217	0.011336	34.152	36.100	145.59	60.912	97.440	152.12	20.890	14.139	0.013363
52.000	2.0333	1072.4	0.00093245	22.841	23.005	105.18	62.262	124.44	406.62	0.44131	119.92	0.070048	0.0044602	90.542	0.011045	34.163	36.105	145.47	61.179	98.725	151.68	20.768	14.219	0.013468
53.000	2.0798	1067.4	0.00093683	22.958	23.127	105.55	62.372	125.35	401.41	0.46616	118.41	0.069540	0.0043332	92.929	0.010761	34.174	36.109	145.35	61.449	100.06	151.22	20.647	14.302	0.013576
54.000	2.1270	1062.3	0.00094131	23.077	23.250	105.91	62.485	126.31	396.18	0.49204	116.90	0.069028	0.0042069	95.381	0.010484	34.183	36.112	145.22	61.722	101.46	150.76	20.529	14.387	0.013685
55.000	2.1751	1057.2	0.00094590	23.196	23.374	106.28	62.598	127.32	390.93	0.51902	115.41	0.068514	0.0040813	97.899	0.010215	34.192	36.113	145.10	61.998	102.91	150.28	20.412	14.474	0.013796
56.000	2.2239	1052.0	0.00095058	23.315	23.498	106.64	62.714	128.36	385.65	0.54716	113.91	0.067996	0.0039565	100.49	0.0099515	34.200	36.114	144.97	62.276	104.44	149.79	20.297	14.564	0.013909
57.000	2.2736	1046.7	0.00095538	23.436	23.623	107.01	62.831	129.46	380.36	0.57654	112.43	0.067475	0.0038324	103.15	0.0096949	34.207	36.113	144.84	62.558	106.03	149.29	20.184	14.656	0.014025
58.000	2.3240	1041.3	0.00096030	23.557	23.750	107.38	62.950	130.61	375.03	0.60725	110.94	0.066951	0.0037091	105.88	0.0094444	34.214	36.112	144.71	62.843	107.70	148.78	20.072	14.750	0.014142
59.000	2.3753	1035.9	0.00096534	23.678	23.877	107.75	63.071	131.82	369.68	0.63935	109.47	0.066422	0.0035866	108.70	0.0092000	34.219	36.109	144.58	63.132	109.45	148.25	19.962	14.848	0.014262
60.000	2.4275	1030.4	0.00097051	23.801	24.005	108.12	63.194	133.09	364.31	0.67296	107.99	0.065890	0.0034649	111.59	0.0089613	34.224	36.105	144.44	63.424	111.30	147.72	19.852	14.948	0.014384
61.000	2.4805	1024.8	0.00097582	23.924	24.133	108.49	63.319	134.43	358.90	0.70817	106.52	0.065353	0.0033440	114.57	0.0087281	34.227	36.099	144.30	63.720	113.24	147.17	19.744	15.052	0.014509
62.000	2.5343	1019.1	0.00098127	24.048	24.263	108.87	63.446	135.84	353.47	0.74509	105.05	0.064813	0.0032240	117.64	0.0085004	34.229	36.092	144.16	64.020	115.28	146.61	19.637	15.159	0.014637
63.000	2.5890	1013.3	0.00098687	24.173	24.394	109.24	63.576	137.34	348.01	0.78385	103.59	0.064267	0.0031049	120.81	0.0082778	34.231	36.084	144.02	64.325	117.45	146.04	19.531	15.269	0.014767
64.000	2.6446	1007.4	0.00099263	24.299	24.526	109.62	63.709	138.91	342.51	0.82459	102.12	0.063716	0.0029866	124.07	0.0080602	34.231	36.074	143.87	64.634	119.74	145.45	19.426	15.383	0.014901
65.000	2.7011	1001.4	0.00099857	24.426	24.659	110.00	63.844	140.59	336.99	0.86745	100.66	0.063160	0.0028692	127.43	0.0078475	34.230	36.063	143.72	64.948	122.16	144.85	19.322	15.501	0.015038
66.000	2.7585	995.34	0.0010047	24.554	24.793	110.38	63.981	142.37	331.43	0.91259	99.198	0.062599	0.0027528	130.90	0.0076393	34.227	36.049	143.57	65.267	124.74	144.24	19.218	15.623	0.015178
67.000	2.8168	989.13	0.0010110	24.683	24.929	110.77	64.122	144.26	325.84	0.96020	97.735	0.062031	0.0026374	134.49	0.0074357	34.224	36.035	143.42	65.591	127.49	143.62	19.115	15.750	0.015322
68.000	2.8761	982.80	0.0010175	24.813	25.066	111.15	64.267	146.27	320.21	1.0105	96.272	0.061458	0.0025229	138.19	0.0072363	34.218	36.018	143.26	65.921	130.43	142.98	19.011	15.882	0.015469
69.000	2.9363	976.34	0.0010242	24.944	25.204	111.54	64.414	148.43	314.54	1.0636	94.807	0.060877	0.0024095	142.02	0.0070410	34.212	35.999	143.09	66.257	133.57	142.33	18.908	16.019	0.015621
70.000	2.9974	969.74	0.0010312	25.076	25.343	111.93	64.566	150.75	308.84	1.1199	93.339	0.060289	0.0022971	145.99	0.0068497	34.203	35.979	142.93	66.600	136.94	141.66	18.805	16.162	0.015777
71.000	3.0595	962.99	0.0010384	25.210	25.485	112.33	64.722	153.23	303.09	1.1797	91.868	0.059693	0.0021859	150.10	0.0066622	34.193	35.956	142.75	66.950	140.57	140.98	18.702	16.310	0.015938
72.000	3.1225	956.10	0.0010459	25.345	25.627	112.73	64.882	155.91	297.29	1.2431	90.393	0.059090	0.0020757	154.36	0.0064783	34.182	35.931	142.58	67.307	144.50	140.29	18.598	16.465	0.016104
73.000	3.1866	949.03	0.0010537	25.481	25.772	113.13	65.048	158.81	291.45	1.3107	88.912	0.058477	0.0019668	158.78	0.0062979	34.168	35.903	142.40	67.673	148.75	139.58	18.493	16.628	0.016276
74.000	3.2516	941.79	0.0010618	25.620	25.918	113.53	65.219	161.96	285.55	1.3828	87.424	0.057854	0.0018590	163.38	0.0061208	34.152	35.873	142.21	68.047	153.37	138.85	18.386	16.797	0.016453
75.000	3.3177	934.36	0.0010703	25.759	26.066	113.94	65.396	165.39	279.60	1.4599	85.928	0.057221	0.0017525	168.16	0.0059468	34.134	35.840	142.01	68.431	158.42	138.11	18.278	16.975	0.016637
76.000	3.3848	926.72	0.0010791	25.901	26.217	114.35	65.580	169.15	273.58	1.5424	84.423	0.056577	0.0016473	173.14	0.0057758	34.114	35.804	141.81	68.825	163.97	137.35	18.169	17.163	0.016827
77.000	3.4529	918.86	0.0010883	26.044	26.369	114.77	65.772	173.28	267.50	1.6311	82.907	0.055920	0.0015435	178.33	0.0056075	34.091	35.765	141.61	69.231	170.08	136.58	18.056	17.360	0.017025
78.000	3.5221	910.76	0.0010980	26.190	26.525	115.20	65.973	177.85	261.35	1.7267	81.377	0.055250	0.0014411	183.76	0.0054419	34.065	35.723	141.39	69.649	176.85	135.79	17.941	17.568	0.017232
79.000	3.5924	902.39	0.0011082	26.338	26.682	115.63	66.184	182.93	255.11	1.8300	79.832	0.054566	0.0013401	189.44	0.0052786	34.037	35.676	141.17	70.080	184.41	134.98	17.822	17.788	0.017447
80.000	3.6638	893.74	0.0011189	26.489	26.843	116.06	66.406	188.62	248.78	1.9420	78.270	0.053865	0.0012408	195.40	0.0051176	34.005	35.626	140.93	70.527	192.89	134.15	17.698	18.021	0.017673
81.000	3.7363	884.76	0.0011302	26.642	27.007	116.51	66.643	195.03	242.35	2.0639	76.687	0.053146	0.0011430	201.67	0.0049586	33.969	35.571	140.69	70.991	202.48	133.31	17.570	18.270	0.017909
82.000	3.8099	875.43	0.0011423	26.798	27.174	116.96	66.896	202.34	235.80	2.1972	75.080	0.052407	0.0010470	208.28	0.0048013	33.929	35.511	140.43	71.473	213.42	132.44	17.435	18.535	0.018158
83.000	3.8847	865.70	0.0011551	26.958	27.346	117.42	67.168	210.72	229.13	2.3435	73.446	0.051646	0.00095283	215.26	0.0046455	33.885	35.445	140.16	71.977	226.03	131.55	17.292	18.819	0.018421
84.000	3.9606	855.52	0.0011689	27.121	27.522	117.89	67.464	220.46	222.31	2.5050	71.779	0.050859	0.00086057	222.67	0.0044910	33.836	35.374	139.88	72.505	240.71	130.64	17.141	19.125	0.018701
85.000	4.0377	844.83	0.0011837	27.289	27.702	118.37	67.788	231.91	215.33	2.6843	70.075	0.050044	0.00077037	230.56	0.0043373	33.781	35.295	139.57	73.061	258.03	129.71	16.978	19.456	0.018998
86.000	4.1161	833.55	0.0011997	27.462	27.889	118.87	68.147	245.59	208.16	2.8846	68.325	0.049196	0.00068239	239.00	0.0041840	33.719	35.208	139.25	73.649	278.78	128.76	16.803	19.817	0.019317
87.000	4.1957	821.59	0.0012172	27.640	28.082	119.39	68.551	262.22	200.78	3.1101	66.523	0.048309	0.00059678	248.09	0.0040307	33.650	35.112	138.91	74.274	304.10	127.78	16.611	20.212	0.019660
88.000	4.2766	808.81	0.0012364	27.826	28.283	119.92	69.010	282.89	193.15	3.3661	64.656	0.047377	0.00051376	257.94	0.0038768	33.572	35.005	138.53	74.945	335.70	126.77	16.400	20.649	0.020034
89.000	4.3588	795.06	0.0012578	28.019	28.493	120.48	69.541	309.28	185.25	3.6598	62.710	0.046390	0.00043357	268.72	0.0037214	33.482	34.885	138.12	75.670	376.24	125.72	16.164	21.137	0.020444
90.000	4.4423	780.11	0.0012819	28.222	28.715	121.06	70.168	344.23	177.01	4.0006	60.666	0.045337	0.00035653	280.63	0.0035635	33.380	34.749	137.68	76.462	430.17	124.64	15.897	21.689	0.020900
91.000	4.5272	763.63	0.0013095	28.438	28.951	121.68	70.923	392.77	168.39	4.4023	58.496	0.044200	0.00028302	294.00	0.0034014	33.260	34.592	137.17	77.340	505.38	123.52	15.588	22.326	0.021415
92.000	4.6136	745.11	0.0013421	28.671	29.206	122.36	71.858	464.95	159.32	4.8847	56.160	0.042953	0.00021356	309.33	0.0032328	33.118	34.407	136.60	78.333	617.57	122.34	15.224	23.079	0.022011
93.000	4.7015	723.72	0.0013817	28.927	29.489	123.10	73.058	584.03	149.69	5.4792	53.588	0.041552	0.00014891	327.48	0.0030536	32.942	34.183	135.92	79.486	802.67	121.07	14.780	24.003	0.022726
94.000	4.7910	697.78	0.0014331	29.220	29.814	123.96	74.681	818.89	139.36	6.2404	50.645	0.039912	9.0188e-05	350.19	0.0028556	32.714	33.897	135.08	80.883	1165.1	119.67	14.210	25.209	0.023635
95.000	4.8824	662.89	0.0015085	29.589	30.225	125.05	77.111	1496.9	128.03	7.2856	47.014	0.037830	3.9478e-05	382.04	0.0026175	32.382	33.487	133.91	82.716	2186.4	117.96	13.400	27.001	0.024942
96.000	4.9761	590.18	0.0016944	30.283	31.012	127.15	82.415	14235.	114.61	9.1639	40.442	0.033879	2.5347e-06	453.65	0.0022043	31.616	32.564	131.35	85.735	19531.	114.66	11.695	31.499	0.028054
