Temperature (C)	Pressure (MPa)	Density (l, kg/m3)	Volume (l, m3/kg)	Internal Energy (l, kJ/mol)	Enthalpy (l, kJ/mol)	Entropy (l, J/mol*K)	Cv (l, J/mol*K)	Cp (l, J/mol*K)	Sound Spd. (l, m/s)	Joule-Thomson (l, K/MPa)	Viscosity (l, uPa*s)	Therm. Cond. (l, W/m*K)	Surf. Tension (l, N/m)	Density (v, kg/m3)	Volume (v, m3/kg)	Internal Energy (v, kJ/mol)	Enthalpy (v, kJ/mol)	Entropy (v, J/mol*K)	Cv (v, J/mol*K)	Cp (v, J/mol*K)	Sound Spd. (v, m/s)	Joule-Thomson (v, K/MPa)	Viscosity (v, uPa*s)	Therm. Cond. (v, W/m*K)
-100.00	0.0011885	1679.1	0.00059555	13.702	13.702	73.480	63.741	98.974	1035.0	-0.53080	1044.3	0.11672	0.026539	0.099959	10.004	35.573	37.010	208.10	45.922	54.297	118.49	111.11	6.7811	0.0042696
-99.000	0.0013044	1676.5	0.00059648	13.801	13.801	74.050	63.765	99.030	1030.4	-0.52978	1020.9	0.11623	0.026380	0.10908	9.1672	35.618	37.064	207.63	46.111	54.490	118.79	108.81	6.8203	0.0043086
-98.000	0.0014298	1673.9	0.00059741	13.900	13.900	74.617	63.791	99.089	1025.9	-0.52873	998.30	0.11575	0.026222	0.11890	8.4104	35.664	37.118	207.18	46.300	54.684	119.08	106.58	6.8595	0.0043478
-97.000	0.0015653	1671.3	0.00059835	13.999	13.999	75.182	63.818	99.149	1021.3	-0.52765	976.54	0.11527	0.026064	0.12945	7.7251	35.710	37.172	206.73	46.489	54.877	119.37	104.42	6.8986	0.0043871
-96.000	0.0017117	1668.6	0.00059930	14.098	14.098	75.743	63.848	99.213	1016.8	-0.52655	955.55	0.11480	0.025906	0.14077	7.1037	35.756	37.226	206.30	46.677	55.070	119.67	102.32	6.9378	0.0044265
-95.000	0.0018696	1666.0	0.00060024	14.197	14.197	76.302	63.879	99.278	1012.2	-0.52542	935.29	0.11432	0.025749	0.15291	6.5397	35.802	37.280	205.87	46.865	55.264	119.96	100.28	6.9770	0.0044661
-94.000	0.0020397	1663.4	0.00060119	14.297	14.297	76.858	63.912	99.346	1007.7	-0.52427	915.71	0.11385	0.025591	0.16592	6.0271	35.848	37.335	205.45	47.052	55.457	120.25	98.300	7.0162	0.0045058
-93.000	0.0022228	1660.7	0.00060214	14.396	14.396	77.411	63.947	99.417	1003.2	-0.52309	896.80	0.11338	0.025434	0.17983	5.5607	35.895	37.389	205.04	47.239	55.649	120.54	96.374	7.0553	0.0045456
-92.000	0.0024197	1658.1	0.00060310	14.495	14.496	77.961	63.983	99.489	998.68	-0.52189	878.52	0.11291	0.025277	0.19471	5.1359	35.941	37.444	204.64	47.426	55.842	120.82	94.503	7.0945	0.0045856
-91.000	0.0026311	1655.5	0.00060406	14.595	14.595	78.509	64.022	99.564	994.18	-0.52066	860.83	0.11244	0.025120	0.21059	4.7485	35.988	37.499	204.25	47.612	56.035	121.11	92.685	7.1337	0.0046257
-90.000	0.0028580	1652.8	0.00060503	14.695	14.695	79.054	64.061	99.641	989.68	-0.51941	843.73	0.11197	0.024964	0.22754	4.3948	36.035	37.554	203.87	47.798	56.228	121.39	90.917	7.1729	0.0046659
-89.000	0.0031013	1650.2	0.00060599	14.794	14.794	79.597	64.103	99.719	985.20	-0.51813	827.16	0.11151	0.024807	0.24561	4.0715	36.082	37.609	203.49	47.984	56.421	121.67	89.199	7.2120	0.0047063
-88.000	0.0033617	1647.5	0.00060697	14.894	14.894	80.137	64.145	99.800	980.72	-0.51683	811.13	0.11104	0.024651	0.26485	3.7757	36.129	37.664	203.12	48.169	56.613	121.95	87.528	7.2512	0.0047468
-87.000	0.0036404	1644.9	0.00060794	14.994	14.994	80.675	64.190	99.883	976.26	-0.51551	795.59	0.11058	0.024495	0.28532	3.5049	36.177	37.720	202.76	48.354	56.806	122.23	85.902	7.2903	0.0047875
-86.000	0.0039383	1642.2	0.00060892	15.094	15.094	81.210	64.235	99.968	971.80	-0.51416	780.53	0.11012	0.024339	0.30708	3.2565	36.224	37.775	202.40	48.538	56.999	122.51	84.322	7.3295	0.0048283
-85.000	0.0042565	1639.6	0.00060991	15.194	15.194	81.743	64.282	100.05	967.35	-0.51278	765.94	0.10967	0.024184	0.33019	3.0286	36.272	37.831	202.05	48.723	57.192	122.79	82.784	7.3686	0.0048692
-84.000	0.0045959	1636.9	0.00061089	15.294	15.294	82.274	64.331	100.14	962.90	-0.51138	751.78	0.10921	0.024028	0.35471	2.8192	36.320	37.886	201.71	48.907	57.384	123.06	81.288	7.4077	0.0049102
-83.000	0.0049578	1634.3	0.00061189	15.394	15.394	82.802	64.380	100.23	958.47	-0.50996	738.04	0.10876	0.023873	0.38072	2.6266	36.368	37.942	201.38	49.090	57.577	123.33	79.832	7.4468	0.0049514
-82.000	0.0053432	1631.6	0.00061288	15.494	15.495	83.328	64.431	100.33	954.04	-0.50851	724.71	0.10830	0.023718	0.40827	2.4494	36.416	37.998	201.05	49.274	57.770	123.60	78.416	7.4859	0.0049927
-81.000	0.0057534	1629.0	0.00061388	15.595	15.595	83.852	64.483	100.42	949.62	-0.50703	711.77	0.10785	0.023564	0.43743	2.2861	36.464	38.054	200.73	49.457	57.964	123.87	77.037	7.5250	0.0050342
-80.000	0.0061895	1626.3	0.00061489	15.695	15.696	84.373	64.537	100.52	945.21	-0.50554	699.20	0.10741	0.023409	0.46827	2.1355	36.512	38.110	200.42	49.639	58.157	124.14	75.694	7.5641	0.0050757
-79.000	0.0066529	1623.6	0.00061590	15.796	15.796	84.892	64.591	100.61	940.80	-0.50401	686.98	0.10696	0.023255	0.50087	1.9965	36.560	38.166	200.11	49.822	58.350	124.41	74.387	7.6031	0.0051174
-78.000	0.0071449	1621.0	0.00061691	15.896	15.897	85.410	64.647	100.71	936.41	-0.50247	675.11	0.10651	0.023101	0.53531	1.8681	36.609	38.223	199.81	50.004	58.544	124.67	73.115	7.6421	0.0051593
-77.000	0.0076667	1618.3	0.00061793	15.997	15.998	85.925	64.703	100.81	932.02	-0.50090	663.57	0.10607	0.022947	0.57164	1.7494	36.657	38.279	199.52	50.186	58.738	124.93	71.876	7.6811	0.0052012
-76.000	0.0082198	1615.6	0.00061895	16.098	16.098	86.437	64.761	100.92	927.64	-0.49930	652.34	0.10563	0.022793	0.60996	1.6395	36.706	38.336	199.23	50.368	58.932	125.19	70.669	7.7201	0.0052433
-75.000	0.0088056	1612.9	0.00061998	16.199	16.199	86.948	64.820	101.02	923.26	-0.49768	641.42	0.10519	0.022640	0.65034	1.5377	36.755	38.392	198.95	50.549	59.126	125.45	69.493	7.7591	0.0052855
-74.000	0.0094256	1610.3	0.00062101	16.300	16.301	87.457	64.879	101.13	918.90	-0.49603	630.80	0.10475	0.022487	0.69286	1.4433	36.804	38.449	198.67	50.730	59.320	125.70	68.347	7.7980	0.0053279
-73.000	0.010081	1607.6	0.00062205	16.401	16.402	87.964	64.940	101.23	914.54	-0.49436	620.45	0.10431	0.022334	0.73761	1.3557	36.853	38.506	198.40	50.911	59.515	125.96	67.231	7.8369	0.0053703
-72.000	0.010774	1604.9	0.00062309	16.502	16.503	88.468	65.001	101.34	910.19	-0.49267	610.38	0.10387	0.022181	0.78466	1.2744	36.902	38.563	198.14	51.092	59.710	126.21	66.144	7.8758	0.0054129
-71.000	0.011506	1602.2	0.00062414	16.604	16.605	88.971	65.064	101.45	905.85	-0.49095	600.57	0.10344	0.022028	0.83411	1.1989	36.952	38.620	197.88	51.272	59.905	126.46	65.084	7.9146	0.0054556
-70.000	0.012278	1599.5	0.00062519	16.705	16.706	89.472	65.127	101.56	901.51	-0.48920	591.01	0.10300	0.021876	0.88605	1.1286	37.001	38.677	197.62	51.452	60.101	126.71	64.051	7.9534	0.0054985
-69.000	0.013092	1596.8	0.00062625	16.807	16.808	89.971	65.191	101.68	897.18	-0.48743	581.69	0.10257	0.021724	0.94056	1.0632	37.051	38.734	197.37	51.632	60.297	126.95	63.044	7.9922	0.0055415
-68.000	0.013950	1594.1	0.00062731	16.908	16.910	90.468	65.256	101.79	892.86	-0.48563	572.61	0.10214	0.021572	0.99774	1.0023	37.100	38.791	197.13	51.812	60.493	127.20	62.062	8.0310	0.0055845
-67.000	0.014854	1591.4	0.00062838	17.010	17.011	90.963	65.322	101.91	888.54	-0.48381	563.75	0.10171	0.021420	1.0577	0.94547	37.150	38.848	196.89	51.992	60.690	127.44	61.105	8.0697	0.0056278
-66.000	0.015805	1588.7	0.00062945	17.112	17.113	91.456	65.389	102.03	884.24	-0.48196	555.11	0.10129	0.021269	1.1205	0.89249	37.200	38.905	196.65	52.171	60.887	127.68	60.171	8.1084	0.0056711
-65.000	0.016806	1586.0	0.00063053	17.214	17.216	91.948	65.456	102.15	879.94	-0.48008	546.69	0.10086	0.021117	1.1862	0.84303	37.250	38.963	196.43	52.350	61.084	127.91	59.261	8.1471	0.0057146
-64.000	0.017858	1583.3	0.00063161	17.316	17.318	92.437	65.524	102.27	875.64	-0.47818	538.46	0.10044	0.020966	1.2550	0.79682	37.300	39.020	196.20	52.529	61.282	128.15	58.373	8.1857	0.0057582
-63.000	0.018962	1580.5	0.00063270	17.419	17.420	92.925	65.593	102.39	871.36	-0.47625	530.43	0.10001	0.020816	1.3269	0.75362	37.350	39.077	195.98	52.708	61.481	128.38	57.507	8.2243	0.0058019
-62.000	0.020122	1577.8	0.00063379	17.521	17.523	93.412	65.662	102.51	867.08	-0.47429	522.59	0.099593	0.020665	1.4021	0.71320	37.400	39.135	195.77	52.887	61.680	128.61	56.662	8.2629	0.0058457
-61.000	0.021339	1575.1	0.00063489	17.624	17.625	93.896	65.732	102.64	862.80	-0.47231	514.93	0.099173	0.020515	1.4807	0.67537	37.450	39.193	195.56	53.065	61.879	128.84	55.837	8.3014	0.0058897
-60.000	0.022615	1572.3	0.00063599	17.726	17.728	94.379	65.803	102.76	858.54	-0.47030	507.45	0.098754	0.020365	1.5627	0.63992	37.500	39.250	195.35	53.244	62.079	129.06	55.033	8.3399	0.0059338
-59.000	0.023952	1569.6	0.00063711	17.829	17.831	94.860	65.874	102.89	854.28	-0.46826	500.14	0.098337	0.020215	1.6483	0.60669	37.551	39.308	195.15	53.422	62.279	129.28	54.248	8.3784	0.0059780
-58.000	0.025353	1566.9	0.00063822	17.932	17.934	95.339	65.946	103.02	850.02	-0.46619	493.00	0.097921	0.020065	1.7375	0.57553	37.601	39.365	194.95	53.600	62.481	129.50	53.481	8.4168	0.0060223
-57.000	0.026819	1564.1	0.00063934	18.035	18.037	95.817	66.018	103.15	845.78	-0.46409	486.01	0.097506	0.019916	1.8306	0.54627	37.652	39.423	194.76	53.778	62.682	129.72	52.734	8.4552	0.0060668
-56.000	0.028353	1561.4	0.00064047	18.138	18.140	96.293	66.092	103.28	841.53	-0.46197	479.18	0.097093	0.019767	1.9276	0.51879	37.702	39.481	194.57	53.956	62.884	129.93	52.003	8.4936	0.0061113
-55.000	0.029957	1558.6	0.00064160	18.242	18.244	96.768	66.165	103.41	837.30	-0.45981	472.50	0.096681	0.019618	2.0285	0.49297	37.753	39.539	194.38	54.133	63.087	130.15	51.291	8.5319	0.0061560
-54.000	0.031633	1555.8	0.00064274	18.345	18.347	97.241	66.239	103.55	833.07	-0.45763	465.97	0.096270	0.019469	2.1336	0.46868	37.804	39.596	194.20	54.311	63.291	130.36	50.595	8.5702	0.0062008
-53.000	0.033384	1553.1	0.00064389	18.449	18.451	97.712	66.314	103.68	828.85	-0.45542	459.57	0.095861	0.019320	2.2430	0.44583	37.855	39.654	194.02	54.488	63.495	130.56	49.915	8.6084	0.0062458
-52.000	0.035212	1550.3	0.00064504	18.552	18.555	98.182	66.389	103.82	824.64	-0.45317	453.31	0.095453	0.019172	2.3567	0.42432	37.905	39.712	193.85	54.666	63.700	130.77	49.251	8.6466	0.0062908
-51.000	0.037120	1547.5	0.00064620	18.656	18.659	98.651	66.465	103.96	820.43	-0.45090	447.19	0.095046	0.019024	2.4749	0.40405	37.956	39.770	193.68	54.843	63.906	130.97	48.603	8.6848	0.0063360
-50.000	0.039110	1544.7	0.00064737	18.760	18.763	99.118	66.541	104.10	816.22	-0.44859	441.19	0.094640	0.018876	2.5978	0.38494	38.007	39.828	193.51	55.020	64.113	131.17	47.969	8.7229	0.0063813
-49.000	0.041184	1541.9	0.00064854	18.864	18.867	99.583	66.618	104.24	812.03	-0.44625	435.31	0.094236	0.018729	2.7254	0.36693	38.058	39.886	193.35	55.197	64.320	131.36	47.351	8.7610	0.0064268
-48.000	0.043345	1539.1	0.00064972	18.968	18.972	100.05	66.695	104.38	807.83	-0.44388	429.55	0.093833	0.018582	2.8578	0.34992	38.110	39.944	193.19	55.375	64.528	131.55	46.746	8.7991	0.0064723
-47.000	0.045596	1536.3	0.00065090	19.073	19.076	100.51	66.772	104.52	803.65	-0.44148	423.91	0.093431	0.018435	2.9952	0.33387	38.161	40.001	193.04	55.552	64.737	131.74	46.155	8.8371	0.0065180
-46.000	0.047939	1533.5	0.00065209	19.177	19.181	100.97	66.850	104.67	799.47	-0.43905	418.38	0.093030	0.018288	3.1378	0.31870	38.212	40.059	192.88	55.729	64.947	131.93	45.578	8.8751	0.0065638
-45.000	0.050377	1530.7	0.00065329	19.282	19.286	101.43	66.928	104.81	795.29	-0.43658	412.97	0.092630	0.018141	3.2856	0.30436	38.263	40.117	192.74	55.905	65.158	132.11	45.014	8.9130	0.0066097
-44.000	0.052913	1527.9	0.00065450	19.387	19.391	101.89	67.007	104.96	791.12	-0.43407	407.65	0.092232	0.017995	3.4388	0.29080	38.315	40.175	192.59	56.082	65.369	132.29	44.462	8.9510	0.0066558
-43.000	0.055549	1525.1	0.00065571	19.492	19.496	102.35	67.086	105.11	786.96	-0.43154	402.45	0.091835	0.017849	3.5975	0.27797	38.366	40.233	192.45	56.259	65.582	132.47	43.923	8.9889	0.0067019
-42.000	0.058288	1522.2	0.00065693	19.597	19.601	102.80	67.165	105.26	782.80	-0.42896	397.34	0.091439	0.017703	3.7619	0.26582	38.417	40.291	192.31	56.436	65.796	132.65	43.396	9.0267	0.0067482
-41.000	0.061133	1519.4	0.00065816	19.702	19.707	103.26	67.245	105.41	778.65	-0.42635	392.32	0.091044	0.017558	3.9321	0.25432	38.469	40.348	192.17	56.613	66.010	132.82	42.881	9.0645	0.0067946
-40.000	0.064087	1516.5	0.00065939	19.807	19.812	103.71	67.325	105.56	774.50	-0.42371	387.41	0.090650	0.017412	4.1082	0.24342	38.520	40.406	192.04	56.790	66.226	132.99	42.377	9.1023	0.0068412
-39.000	0.067153	1513.7	0.00066063	19.913	19.918	104.16	67.406	105.72	770.36	-0.42102	382.58	0.090257	0.017267	4.2904	0.23308	38.572	40.464	191.91	56.967	66.443	133.15	41.885	9.1401	0.0068878
-38.000	0.070333	1510.8	0.00066188	20.018	20.024	104.61	67.486	105.87	766.22	-0.41830	377.85	0.089865	0.017123	4.4788	0.22328	38.623	40.522	191.78	57.144	66.661	133.31	41.403	9.1778	0.0069346
-37.000	0.073630	1508.0	0.00066314	20.124	20.130	105.06	67.567	106.03	762.09	-0.41554	373.19	0.089475	0.016978	4.6736	0.21397	38.675	40.580	191.65	57.320	66.880	133.47	40.931	9.2155	0.0069815
-36.000	0.077049	1505.1	0.00066441	20.230	20.236	105.51	67.649	106.19	757.97	-0.41275	368.63	0.089085	0.016834	4.8748	0.20513	38.726	40.637	191.53	57.497	67.100	133.63	40.470	9.2532	0.0070285
-35.000	0.080590	1502.2	0.00066568	20.336	20.343	105.95	67.730	106.35	753.84	-0.40991	364.15	0.088697	0.016690	5.0828	0.19674	38.778	40.695	191.41	57.674	67.322	133.78	40.019	9.2909	0.0070757
-34.000	0.084259	1499.3	0.00066696	20.443	20.449	106.40	67.812	106.51	749.73	-0.40703	359.74	0.088309	0.016546	5.2976	0.18877	38.829	40.752	191.30	57.851	67.544	133.93	39.578	9.3285	0.0071230
-33.000	0.088057	1496.4	0.00066825	20.549	20.556	106.84	67.895	106.67	745.61	-0.40411	355.41	0.087923	0.016402	5.5193	0.18118	38.881	40.810	191.18	58.028	67.768	134.07	39.146	9.3661	0.0071704
-32.000	0.091988	1493.5	0.00066955	20.656	20.663	107.29	67.977	106.83	741.50	-0.40115	351.16	0.087538	0.016259	5.7482	0.17397	38.932	40.867	191.07	58.206	67.994	134.21	38.723	9.4037	0.0072179
-31.000	0.096055	1490.6	0.00067085	20.762	20.770	107.73	68.060	107.00	737.40	-0.39814	346.98	0.087153	0.016116	5.9843	0.16710	38.984	40.925	190.96	58.383	68.220	134.35	38.310	9.4412	0.0072656
-30.000	0.10026	1487.7	0.00067217	20.869	20.877	108.17	68.143	107.16	733.30	-0.39509	342.88	0.086770	0.015974	6.2279	0.16057	39.036	40.982	190.85	58.560	68.449	134.49	37.905	9.4788	0.0073134
-29.000	0.10461	1484.8	0.00067349	20.976	20.985	108.61	68.226	107.33	729.21	-0.39200	338.84	0.086387	0.015831	6.4791	0.15434	39.087	41.040	190.75	58.737	68.678	134.62	37.509	9.5163	0.0073613
-28.000	0.10910	1481.9	0.00067482	21.084	21.093	109.05	68.309	107.50	725.12	-0.38886	334.87	0.086006	0.015689	6.7381	0.14841	39.139	41.097	190.65	58.915	68.909	134.74	37.121	9.5538	0.0074093
-27.000	0.11375	1478.9	0.00067616	21.191	21.200	109.48	68.393	107.67	721.03	-0.38567	330.96	0.085625	0.015547	7.0049	0.14276	39.191	41.154	190.55	59.092	69.141	134.87	36.741	9.5914	0.0074575
-26.000	0.11854	1476.0	0.00067751	21.299	21.308	109.92	68.477	107.84	716.95	-0.38244	327.12	0.085246	0.015405	7.2799	0.13736	39.242	41.211	190.45	59.270	69.375	134.99	36.369	9.6289	0.0075058
-25.000	0.12349	1473.0	0.00067887	21.406	21.416	110.36	68.561	108.02	712.87	-0.37916	323.34	0.084867	0.015264	7.5631	0.13222	39.294	41.268	190.35	59.448	69.611	135.10	36.005	9.6664	0.0075542
-24.000	0.12860	1470.1	0.00068024	21.514	21.525	110.79	68.645	108.19	708.80	-0.37582	319.63	0.084489	0.015123	7.8548	0.12731	39.345	41.325	190.26	59.625	69.848	135.22	35.648	9.7038	0.0076027
-23.000	0.13387	1467.1	0.00068162	21.622	21.633	111.22	68.730	108.37	704.72	-0.37244	315.97	0.084112	0.014982	8.1551	0.12262	39.397	41.382	190.17	59.803	70.087	135.32	35.299	9.7413	0.0076514
-22.000	0.13931	1464.1	0.00068300	21.730	21.742	111.65	68.815	108.55	700.66	-0.36901	312.37	0.083736	0.014842	8.4641	0.11815	39.449	41.439	190.08	59.981	70.328	135.43	34.957	9.7788	0.0077003
-21.000	0.14492	1461.1	0.00068440	21.839	21.851	112.08	68.900	108.73	696.59	-0.36552	308.82	0.083361	0.014701	8.7821	0.11387	39.500	41.496	189.99	60.160	70.570	135.53	34.622	9.8163	0.0077492
-20.000	0.15070	1458.1	0.00068581	21.947	21.960	112.51	68.985	108.91	692.53	-0.36198	305.33	0.082987	0.014561	9.1093	0.10978	39.552	41.552	189.91	60.338	70.814	135.63	34.294	9.8538	0.0077983
-19.000	0.15666	1455.1	0.00068722	22.056	22.069	112.94	69.070	109.10	688.48	-0.35838	301.90	0.082614	0.014422	9.4457	0.10587	39.603	41.609	189.83	60.517	71.060	135.72	33.972	9.8913	0.0078475
-18.000	0.16279	1452.1	0.00068865	22.165	22.178	113.37	69.155	109.28	684.43	-0.35473	298.52	0.082241	0.014282	9.7917	0.10213	39.655	41.665	189.74	60.695	71.308	135.81	33.657	9.9289	0.0078969
-17.000	0.16911	1449.1	0.00069009	22.274	22.288	113.80	69.241	109.47	680.38	-0.35102	295.18	0.081869	0.014143	10.147	0.098548	39.706	41.721	189.66	60.874	71.558	135.90	33.348	9.9664	0.0079464
-16.000	0.17562	1446.1	0.00069154	22.383	22.398	114.22	69.327	109.66	676.33	-0.34725	291.90	0.081498	0.014004	10.513	0.095121	39.758	41.778	189.59	61.053	71.810	135.98	33.046	10.004	0.0079960
-15.000	0.18231	1443.0	0.00069300	22.493	22.508	114.65	69.413	109.85	672.29	-0.34342	288.66	0.081128	0.013866	10.889	0.091839	39.809	41.834	189.51	61.233	72.064	136.05	32.750	10.042	0.0080458
-14.000	0.18920	1440.0	0.00069447	22.602	22.618	115.07	69.499	110.04	668.24	-0.33953	285.48	0.080759	0.013727	11.274	0.088696	39.861	41.890	189.44	61.412	72.320	136.13	32.459	10.079	0.0080957
-13.000	0.19629	1436.9	0.00069595	22.712	22.729	115.50	69.585	110.23	664.21	-0.33558	282.34	0.080390	0.013589	11.671	0.085683	39.912	41.946	189.36	61.592	72.578	136.20	32.174	10.117	0.0081457
-12.000	0.20358	1433.8	0.00069744	22.822	22.839	115.92	69.671	110.43	660.17	-0.33156	279.24	0.080022	0.013452	12.078	0.082796	39.963	42.001	189.29	61.771	72.838	136.26	31.895	10.154	0.0081959
-11.000	0.21108	1430.7	0.00069894	22.932	22.950	116.34	69.758	110.63	656.14	-0.32748	276.19	0.079655	0.013314	12.496	0.080026	40.014	42.057	189.22	61.951	73.101	136.32	31.622	10.192	0.0082462
-10.000	0.21878	1427.6	0.00070046	23.042	23.061	116.76	69.845	110.83	652.11	-0.32332	273.18	0.079288	0.013177	12.925	0.077370	40.066	42.112	189.16	62.132	73.365	136.38	31.354	10.230	0.0082967
-9.0000	0.22670	1424.5	0.00070199	23.153	23.172	117.18	69.932	111.03	648.08	-0.31910	270.21	0.078923	0.013040	13.365	0.074821	40.117	42.168	189.09	62.312	73.633	136.43	31.091	10.268	0.0083473
-8.0000	0.23483	1421.4	0.00070353	23.264	23.284	117.60	70.019	111.23	644.05	-0.31481	267.28	0.078558	0.012904	13.817	0.072374	40.168	42.223	189.02	62.493	73.902	136.48	30.833	10.306	0.0083981
-7.0000	0.24318	1418.3	0.00070508	23.374	23.395	118.01	70.106	111.44	640.03	-0.31044	264.39	0.078193	0.012768	14.281	0.070025	40.219	42.278	188.96	62.674	74.175	136.52	30.581	10.344	0.0084490
-6.0000	0.25176	1415.1	0.00070664	23.485	23.507	118.43	70.193	111.65	636.01	-0.30600	261.54	0.077830	0.012632	14.756	0.067769	40.270	42.333	188.90	62.855	74.449	136.56	30.333	10.382	0.0085001
-5.0000	0.26057	1412.0	0.00070822	23.597	23.619	118.85	70.280	111.86	631.99	-0.30148	258.73	0.077467	0.012496	15.244	0.065601	40.321	42.388	188.84	63.036	74.727	136.59	30.090	10.420	0.0085513
-4.0000	0.26960	1408.8	0.00070981	23.708	23.731	119.26	70.368	112.07	627.97	-0.29689	255.96	0.077104	0.012361	15.744	0.063517	40.372	42.442	188.78	63.218	75.007	136.62	29.852	10.458	0.0086027
-3.0000	0.27887	1405.7	0.00071141	23.820	23.844	119.68	70.456	112.29	623.95	-0.29221	253.22	0.076742	0.012226	16.257	0.061514	40.422	42.497	188.72	63.400	75.290	136.65	29.618	10.496	0.0086542
-2.0000	0.28839	1402.5	0.00071303	23.932	23.957	120.09	70.543	112.50	619.94	-0.28745	250.52	0.076381	0.012091	16.782	0.059587	40.473	42.551	188.66	63.582	75.576	136.67	29.390	10.534	0.0087059
-1.0000	0.29814	1399.3	0.00071466	24.044	24.069	120.50	70.631	112.72	615.93	-0.28261	247.86	0.076021	0.011957	17.321	0.057734	40.524	42.605	188.61	63.765	75.864	136.68	29.165	10.573	0.0087577
0.0000	0.30815	1396.1	0.00071630	24.156	24.183	120.91	70.720	112.95	611.91	-0.27768	245.22	0.075661	0.011823	17.873	0.055951	40.574	42.659	188.55	63.948	76.156	136.69	28.945	10.611	0.0088097
1.0000	0.31840	1392.8	0.00071796	24.268	24.296	121.32	70.808	113.17	607.90	-0.27266	242.62	0.075301	0.011689	18.438	0.054235	40.625	42.713	188.50	64.131	76.451	136.70	28.729	10.650	0.0088619
2.0000	0.32891	1389.6	0.00071963	24.381	24.410	121.73	70.896	113.40	603.89	-0.26755	240.06	0.074942	0.011555	19.018	0.052582	40.675	42.766	188.45	64.314	76.749	136.70	28.518	10.688	0.0089143
3.0000	0.33968	1386.4	0.00072132	24.494	24.523	122.14	70.985	113.63	599.88	-0.26234	237.52	0.074584	0.011422	19.611	0.050991	40.725	42.819	188.40	64.498	77.050	136.70	28.310	10.727	0.0089668
4.0000	0.35071	1383.1	0.00072302	24.607	24.637	122.55	71.073	113.86	595.87	-0.25704	235.02	0.074226	0.011290	20.219	0.049458	40.775	42.873	188.35	64.682	77.355	136.69	28.106	10.766	0.0090194
5.0000	0.36201	1379.8	0.00072474	24.720	24.752	122.96	71.162	114.10	591.87	-0.25164	232.54	0.073869	0.011157	20.842	0.047980	40.825	42.926	188.30	64.866	77.663	136.68	27.907	10.805	0.0090723
6.0000	0.37358	1376.5	0.00072647	24.834	24.866	123.37	71.251	114.34	587.86	-0.24613	230.10	0.073512	0.011025	21.479	0.046556	40.875	42.978	188.25	65.051	77.975	136.66	27.711	10.844	0.0091253
7.0000	0.38543	1373.2	0.00072822	24.947	24.981	123.78	71.340	114.58	583.85	-0.24053	227.68	0.073155	0.010893	22.132	0.045183	40.925	43.031	188.20	65.236	78.290	136.64	27.519	10.884	0.0091785
8.0000	0.39756	1369.9	0.00072998	25.061	25.096	124.18	71.430	114.82	579.84	-0.23481	225.30	0.072800	0.010762	22.800	0.043859	40.975	43.083	188.16	65.421	78.609	136.61	27.331	10.923	0.0092319
9.0000	0.40997	1366.6	0.00073176	25.175	25.211	124.59	71.519	115.07	575.83	-0.22898	222.94	0.072444	0.010631	23.484	0.042582	41.025	43.135	188.11	65.607	78.932	136.58	27.147	10.963	0.0092855
10.000	0.42267	1363.2	0.00073356	25.289	25.327	124.99	71.609	115.32	571.83	-0.22304	220.60	0.072089	0.010500	24.184	0.041350	41.074	43.187	188.07	65.793	79.259	136.54	26.966	11.003	0.0093393
11.000	0.43566	1359.9	0.00073537	25.404	25.443	125.40	71.699	115.57	567.82	-0.21698	218.30	0.071734	0.010369	24.900	0.040160	41.124	43.239	188.03	65.979	79.590	136.50	26.788	11.043	0.0093932
12.000	0.44894	1356.5	0.00073720	25.519	25.559	125.80	71.789	115.83	563.81	-0.21080	216.02	0.071380	0.010239	25.633	0.039012	41.173	43.291	187.98	66.166	79.926	136.45	26.614	11.083	0.0094474
13.000	0.46253	1353.1	0.00073905	25.634	25.675	126.20	71.879	116.09	559.80	-0.20449	213.76	0.071026	0.010110	26.383	0.037903	41.222	43.342	187.94	66.353	80.265	136.40	26.444	11.124	0.0095017
14.000	0.47642	1349.7	0.00074092	25.749	25.792	126.60	71.969	116.35	555.79	-0.19806	211.53	0.070673	0.0099801	27.150	0.036832	41.271	43.393	187.90	66.541	80.609	136.34	26.277	11.164	0.0095562
15.000	0.49063	1346.3	0.00074280	25.864	25.908	127.01	72.060	116.62	551.77	-0.19149	209.33	0.070320	0.0098510	27.935	0.035798	41.320	43.444	187.86	66.729	80.958	136.28	26.113	11.205	0.0096110
16.000	0.50514	1342.8	0.00074471	25.980	26.025	127.41	72.151	116.89	547.76	-0.18479	207.15	0.069967	0.0097223	28.737	0.034798	41.369	43.494	187.82	66.917	81.312	136.21	25.952	11.246	0.0096660
17.000	0.51997	1339.4	0.00074663	26.096	26.143	127.81	72.242	117.17	543.75	-0.17795	204.99	0.069614	0.0095940	29.558	0.033831	41.417	43.544	187.78	67.106	81.670	136.13	25.795	11.287	0.0097211
18.000	0.53513	1335.9	0.00074857	26.212	26.260	128.21	72.333	117.45	539.73	-0.17096	202.85	0.069262	0.0094660	30.398	0.032897	41.466	43.594	187.74	67.295	82.034	136.05	25.641	11.329	0.0097765
19.000	0.55061	1332.4	0.00075054	26.328	26.378	128.61	72.424	117.73	535.71	-0.16382	200.74	0.068910	0.0093383	31.257	0.031993	41.514	43.644	187.70	67.485	82.403	135.97	25.490	11.371	0.0098322
20.000	0.56642	1328.9	0.00075252	26.445	26.497	129.01	72.516	118.02	531.69	-0.15653	198.65	0.068558	0.0092110	32.135	0.031119	41.562	43.693	187.67	67.675	82.777	135.88	25.341	11.413	0.0098880
21.000	0.58256	1325.3	0.00075452	26.562	26.615	129.40	72.608	118.31	527.67	-0.14908	196.58	0.068207	0.0090841	33.032	0.030273	41.610	43.742	187.63	67.866	83.157	135.78	25.196	11.455	0.0099441
22.000	0.59904	1321.8	0.00075655	26.679	26.734	129.80	72.700	118.61	523.64	-0.14147	194.53	0.067855	0.0089576	33.950	0.029455	41.658	43.791	187.59	68.057	83.543	135.68	25.054	11.498	0.010000
23.000	0.61587	1318.2	0.00075860	26.796	26.853	130.20	72.793	118.91	519.61	-0.13368	192.50	0.067504	0.0088314	34.888	0.028663	41.705	43.840	187.56	68.248	83.935	135.57	24.915	11.541	0.010057
24.000	0.63305	1314.6	0.00076067	26.914	26.972	130.60	72.885	119.22	515.58	-0.12573	190.49	0.067153	0.0087056	35.848	0.027896	41.753	43.888	187.52	68.441	84.333	135.46	24.779	11.584	0.010114
25.000	0.65057	1311.0	0.00076276	27.032	27.092	130.99	72.979	119.53	511.54	-0.11759	188.50	0.066802	0.0085802	36.828	0.027153	41.800	43.936	187.49	68.633	84.737	135.34	24.645	11.628	0.010171
26.000	0.66846	1307.4	0.00076487	27.150	27.212	131.39	73.072	119.84	507.51	-0.10926	186.53	0.066452	0.0084552	37.830	0.026434	41.847	43.983	187.45	68.826	85.149	135.21	24.514	11.672	0.010228
27.000	0.68670	1303.8	0.00076701	27.268	27.332	131.78	73.166	120.17	503.46	-0.10074	184.58	0.066101	0.0083305	38.855	0.025737	41.894	44.031	187.42	69.020	85.567	135.08	24.386	11.717	0.010286
28.000	0.70531	1300.1	0.00076918	27.387	27.452	132.18	73.260	120.49	499.42	-0.092025	182.65	0.065751	0.0082062	39.902	0.025061	41.940	44.078	187.39	69.214	85.992	134.94	24.261	11.761	0.010344
29.000	0.72429	1296.4	0.00077137	27.506	27.573	132.57	73.354	120.83	495.37	-0.083099	180.73	0.065400	0.0080824	40.972	0.024407	41.987	44.124	187.35	69.409	86.425	134.80	24.139	11.807	0.010402
30.000	0.74365	1292.7	0.00077358	27.625	27.694	132.97	73.449	121.16	491.31	-0.073960	178.83	0.065050	0.0079589	42.066	0.023772	42.033	44.171	187.32	69.604	86.865	134.65	24.019	11.852	0.010460
31.000	0.76339	1289.0	0.00077582	27.744	27.816	133.36	73.544	121.51	487.25	-0.064599	176.95	0.064700	0.0078358	43.184	0.023157	42.079	44.216	187.29	69.800	87.313	134.50	23.902	11.898	0.010519
32.000	0.78350	1285.2	0.00077809	27.864	27.938	133.76	73.640	121.86	483.19	-0.055008	175.09	0.064349	0.0077131	44.326	0.022560	42.125	44.262	187.25	69.997	87.770	134.34	23.787	11.945	0.010578
33.000	0.80401	1281.4	0.00078038	27.984	28.060	134.15	73.736	122.22	479.12	-0.045179	173.24	0.063999	0.0075909	45.494	0.021981	42.170	44.307	187.22	70.194	88.235	134.17	23.675	11.992	0.010637
34.000	0.82491	1277.6	0.00078271	28.104	28.182	134.54	73.833	122.58	475.04	-0.035104	171.41	0.063648	0.0074690	46.687	0.021419	42.216	44.352	187.19	70.392	88.709	134.00	23.565	12.039	0.010697
35.000	0.84621	1273.8	0.00078506	28.225	28.305	134.94	73.930	122.96	470.96	-0.024773	169.60	0.063298	0.0073476	47.906	0.020874	42.261	44.396	187.15	70.591	89.193	133.82	23.458	12.087	0.010757
36.000	0.86791	1269.9	0.00078744	28.346	28.429	135.33	74.028	123.33	466.87	-0.014177	167.80	0.062947	0.0072266	49.152	0.020345	42.305	44.440	187.12	70.790	89.686	133.63	23.354	12.136	0.010817
37.000	0.89001	1266.1	0.00078985	28.467	28.552	135.72	74.126	123.72	462.78	-0.0033049	166.01	0.062597	0.0071060	50.426	0.019831	42.350	44.484	187.09	70.990	90.190	133.44	23.252	12.185	0.010878
38.000	0.91253	1262.2	0.00079230	28.589	28.676	136.11	74.225	124.12	458.68	0.0078530	164.25	0.062246	0.0069858	51.727	0.019332	42.394	44.527	187.06	71.191	90.703	133.24	23.152	12.235	0.010939
39.000	0.93547	1258.2	0.00079477	28.710	28.800	136.50	74.324	124.52	454.57	0.019308	162.49	0.061895	0.0068660	53.057	0.018848	42.438	44.570	187.02	71.393	91.228	133.03	23.055	12.285	0.011000
40.000	0.95882	1254.3	0.00079728	28.832	28.925	136.90	74.424	124.93	450.45	0.031072	160.75	0.061544	0.0067467	54.416	0.018377	42.482	44.612	186.99	71.595	91.765	132.82	22.960	12.336	0.011062
41.000	0.98260	1250.3	0.00079982	28.955	29.050	137.29	74.525	125.35	446.33	0.043158	159.02	0.061192	0.0066278	55.805	0.017920	42.525	44.654	186.96	71.798	92.313	132.60	22.867	12.388	0.011124
42.000	1.0068	1246.3	0.00080240	29.078	29.175	137.68	74.626	125.78	442.20	0.055577	157.31	0.060840	0.0065094	57.224	0.017475	42.568	44.696	186.93	72.002	92.874	132.37	22.777	12.440	0.011187
43.000	1.0315	1242.2	0.00080501	29.201	29.301	138.07	74.728	126.22	438.06	0.068345	155.61	0.060488	0.0063914	58.675	0.017043	42.611	44.737	186.89	72.207	93.447	132.14	22.689	12.493	0.011250
44.000	1.0565	1238.1	0.00080766	29.324	29.427	138.46	74.831	126.67	433.91	0.081475	153.92	0.060136	0.0062739	60.158	0.016623	42.653	44.777	186.86	72.413	94.035	131.90	22.604	12.547	0.011313
45.000	1.0821	1234.0	0.00081034	29.448	29.554	138.85	74.935	127.13	429.75	0.094983	152.24	0.059783	0.0061568	61.673	0.016215	42.696	44.817	186.82	72.620	94.637	131.65	22.521	12.602	0.011377
46.000	1.1081	1229.9	0.00081307	29.572	29.681	139.24	75.039	127.60	425.58	0.10888	150.58	0.059430	0.0060402	63.222	0.015817	42.737	44.857	186.79	72.828	95.253	131.39	22.440	12.657	0.011441
47.000	1.1345	1225.7	0.00081583	29.697	29.808	139.63	75.145	128.09	421.40	0.12320	148.93	0.059076	0.0059241	64.806	0.015431	42.779	44.896	186.76	73.037	95.885	131.13	22.361	12.714	0.011506
48.000	1.1614	1221.5	0.00081864	29.821	29.936	140.02	75.252	128.58	417.21	0.13794	147.29	0.058722	0.0058084	66.424	0.015055	42.820	44.934	186.72	73.247	96.534	130.86	22.284	12.771	0.011571
49.000	1.1888	1217.3	0.00082149	29.947	30.065	140.41	75.359	129.09	413.01	0.15313	145.66	0.058368	0.0056933	68.079	0.014689	42.861	44.972	186.69	73.458	97.200	130.58	22.210	12.829	0.011637
50.000	1.2166	1213.0	0.00082438	30.072	30.193	140.80	75.468	129.61	408.79	0.16878	144.05	0.058013	0.0055786	69.771	0.014333	42.901	45.009	186.65	73.670	97.884	130.30	22.138	12.888	0.011703
51.000	1.2449	1208.7	0.00082732	30.198	30.323	141.19	75.578	130.15	404.57	0.18493	142.44	0.057657	0.0054644	71.501	0.013986	42.941	45.046	186.62	73.883	98.587	130.01	22.068	12.948	0.011770
52.000	1.2737	1204.4	0.00083030	30.324	30.452	141.58	75.689	130.70	400.33	0.20159	140.85	0.057301	0.0053507	73.270	0.013648	42.980	45.082	186.58	74.098	99.310	129.71	22.001	13.009	0.011838
53.000	1.3030	1200.0	0.00083334	30.451	30.583	141.98	75.801	131.26	396.08	0.21878	139.26	0.056944	0.0052375	75.080	0.013319	43.019	45.118	186.54	74.314	100.05	129.40	21.935	13.071	0.011905
54.000	1.3327	1195.6	0.00083642	30.578	30.713	142.37	75.914	131.84	391.82	0.23654	137.69	0.056586	0.0051248	76.930	0.012999	43.058	45.153	186.50	74.531	100.82	129.09	21.872	13.134	0.011974
55.000	1.3630	1191.1	0.00083955	30.706	30.844	142.76	76.029	132.44	387.54	0.25489	136.12	0.056228	0.0050126	78.823	0.012687	43.096	45.187	186.46	74.749	101.61	128.76	21.811	13.199	0.012043
56.000	1.3938	1186.6	0.00084274	30.834	30.976	143.15	76.146	133.06	383.25	0.27385	134.56	0.055869	0.0049009	80.759	0.012382	43.134	45.221	186.42	74.970	102.42	128.43	21.752	13.265	0.012113
57.000	1.4250	1182.1	0.00084598	30.962	31.108	143.54	76.264	133.69	378.94	0.29347	133.02	0.055509	0.0047898	82.741	0.012086	43.171	45.254	186.38	75.191	103.26	128.09	21.695	13.332	0.012183
58.000	1.4568	1177.5	0.00084928	31.091	31.241	143.93	76.384	134.35	374.62	0.31376	131.48	0.055148	0.0046792	84.768	0.011797	43.208	45.286	186.34	75.414	104.13	127.74	21.640	13.400	0.012255
59.000	1.4891	1172.8	0.00085264	31.221	31.374	144.32	76.505	135.02	370.28	0.33478	129.95	0.054786	0.0045692	86.843	0.011515	43.244	45.317	186.30	75.639	105.03	127.39	21.587	13.470	0.012327
60.000	1.5219	1168.1	0.00085605	31.350	31.508	144.71	76.629	135.72	365.92	0.35655	128.43	0.054423	0.0044597	88.966	0.011240	43.280	45.348	186.26	75.866	105.96	127.02	21.536	13.541	0.012399
61.000	1.5553	1163.4	0.00085954	31.481	31.642	145.11	76.754	136.44	361.55	0.37912	126.91	0.054059	0.0043507	91.141	0.010972	43.315	45.378	186.21	76.094	106.92	126.65	21.487	13.614	0.012473
62.000	1.5892	1158.6	0.00086309	31.612	31.777	145.50	76.882	137.19	357.16	0.40252	125.41	0.053694	0.0042424	93.367	0.010710	43.350	45.408	186.17	76.324	107.91	126.27	21.441	13.688	0.012547
63.000	1.6236	1153.8	0.00086670	31.743	31.913	145.89	77.011	137.96	352.75	0.42682	123.91	0.053327	0.0041346	95.647	0.010455	43.384	45.436	186.12	76.556	108.95	125.88	21.396	13.765	0.012622
64.000	1.6586	1148.9	0.00087039	31.875	32.049	146.29	77.143	138.76	348.32	0.45205	122.42	0.052960	0.0040274	97.982	0.010206	43.417	45.464	186.08	76.791	110.02	125.47	21.353	13.842	0.012698
65.000	1.6941	1144.0	0.00087415	32.007	32.186	146.68	77.278	139.59	343.87	0.47827	120.93	0.052591	0.0039208	100.37	0.0099627	43.450	45.491	186.03	77.027	111.13	125.07	21.313	13.922	0.012775
66.000	1.7302	1139.0	0.00087799	32.140	32.324	147.08	77.415	140.45	339.39	0.50553	119.45	0.052220	0.0038147	102.83	0.0097251	43.482	45.516	185.98	77.266	112.29	124.65	21.274	14.004	0.012853
67.000	1.7668	1133.9	0.00088191	32.273	32.462	147.47	77.555	141.35	334.90	0.53391	117.98	0.051848	0.0037093	105.34	0.0094930	43.513	45.541	185.92	77.507	113.50	124.22	21.237	14.088	0.012932
68.000	1.8041	1128.8	0.00088591	32.408	32.601	147.87	77.698	142.28	330.38	0.56347	116.51	0.051475	0.0036046	107.92	0.0092663	43.544	45.565	185.87	77.751	114.76	123.78	21.202	14.173	0.013012
69.000	1.8418	1123.6	0.00089000	32.542	32.740	148.26	77.844	143.25	325.84	0.59427	115.05	0.051100	0.0035004	110.56	0.0090448	43.574	45.588	185.82	77.997	116.08	123.33	21.169	14.261	0.013093
70.000	1.8802	1118.3	0.00089419	32.678	32.881	148.66	77.993	144.26	321.28	0.62641	113.59	0.050723	0.0033969	113.27	0.0088283	43.603	45.610	185.76	78.246	117.45	122.88	21.138	14.352	0.013175
71.000	1.9192	1113.0	0.00089847	32.814	33.022	149.06	78.146	145.32	316.69	0.65995	112.14	0.050344	0.0032941	116.05	0.0086167	43.632	45.631	185.70	78.498	118.89	122.41	21.109	14.445	0.013258
72.000	1.9587	1107.6	0.00090284	32.950	33.164	149.46	78.303	146.42	312.08	0.69501	110.69	0.049963	0.0031919	118.91	0.0084097	43.659	45.651	185.64	78.753	120.39	121.93	21.081	14.540	0.013343
73.000	1.9989	1102.1	0.00090733	33.087	33.307	149.86	78.464	147.58	307.44	0.73168	109.25	0.049580	0.0030905	121.84	0.0082073	43.686	45.670	185.58	79.012	121.97	121.44	21.055	14.639	0.013429
74.000	2.0397	1096.6	0.00091192	33.225	33.450	150.26	78.629	148.79	302.77	0.77006	107.81	0.049194	0.0029897	124.86	0.0080092	43.712	45.687	185.51	79.274	123.63	120.95	21.031	14.740	0.013517
75.000	2.0811	1090.9	0.00091663	33.364	33.595	150.66	78.798	150.05	298.07	0.81028	106.37	0.048806	0.0028896	127.95	0.0078154	43.737	45.703	185.44	79.539	125.38	120.44	21.008	14.844	0.013606
76.000	2.1231	1085.2	0.00092147	33.504	33.740	151.07	78.972	151.39	293.35	0.85246	104.94	0.048416	0.0027902	131.14	0.0076257	43.761	45.718	185.37	79.809	127.22	119.92	20.987	14.952	0.013696
77.000	2.1657	1079.4	0.00092643	33.644	33.887	151.47	79.152	152.79	288.59	0.89675	103.50	0.048023	0.0026916	134.41	0.0074399	43.784	45.732	185.30	80.083	129.17	119.39	20.968	15.063	0.013789
78.000	2.2090	1073.5	0.00093152	33.785	34.034	151.88	79.337	154.27	283.80	0.94332	102.07	0.047627	0.0025937	137.78	0.0072580	43.805	45.744	185.23	80.361	131.23	118.85	20.950	15.178	0.013883
79.000	2.2529	1067.5	0.00093676	33.927	34.183	152.29	79.528	155.83	278.98	0.99231	100.64	0.047228	0.0024966	141.25	0.0070797	43.826	45.755	185.15	80.643	133.41	118.29	20.933	15.296	0.013978
80.000	2.2975	1061.4	0.00094215	34.070	34.332	152.70	79.725	157.47	274.13	1.0439	99.210	0.046826	0.0024003	144.82	0.0069050	43.845	45.764	185.07	80.931	135.72	117.73	20.917	15.419	0.014076
81.000	2.3427	1055.2	0.00094771	34.214	34.483	153.11	79.929	159.22	269.25	1.0984	97.779	0.046421	0.0023047	148.51	0.0067338	43.864	45.771	184.98	81.224	138.19	117.15	20.903	15.546	0.014176
82.000	2.3886	1048.8	0.00095343	34.359	34.635	153.52	80.140	161.08	264.33	1.1559	96.348	0.046011	0.0022100	152.30	0.0065658	43.881	45.777	184.90	81.522	140.81	116.57	20.889	15.677	0.014278
83.000	2.4352	1042.4	0.00095933	34.505	34.788	153.94	80.359	163.05	259.37	1.2167	94.916	0.045598	0.0021162	156.23	0.0064010	43.896	45.781	184.80	81.827	143.62	115.97	20.877	15.814	0.014383
84.000	2.4824	1035.8	0.00096543	34.652	34.942	154.36	80.587	165.15	254.38	1.2812	93.481	0.045181	0.0020232	160.28	0.0062392	43.910	45.783	184.71	82.138	146.63	115.35	20.865	15.956	0.014490
85.000	2.5304	1029.1	0.00097173	34.801	35.098	154.78	80.823	167.40	249.36	1.3495	92.043	0.044759	0.0019311	164.46	0.0060804	43.922	45.783	184.61	82.456	149.86	114.73	20.853	16.104	0.014600
86.000	2.5790	1022.2	0.00097826	34.950	35.255	155.20	81.069	169.80	244.29	1.4221	90.602	0.044332	0.0018399	168.80	0.0059243	43.933	45.780	184.50	82.782	153.35	114.09	20.841	16.258	0.014713
87.000	2.6284	1015.2	0.00098502	35.101	35.414	155.62	81.325	172.39	239.19	1.4993	89.156	0.043900	0.0017497	173.28	0.0057710	43.942	45.776	184.39	83.116	157.11	113.44	20.830	16.418	0.014829
88.000	2.6784	1008.0	0.00099203	35.253	35.574	156.05	81.592	175.17	234.05	1.5817	87.704	0.043463	0.0016604	177.93	0.0056202	43.949	45.769	184.28	83.458	161.20	112.78	20.817	16.586	0.014948
89.000	2.7293	1000.7	0.00099931	35.407	35.736	156.48	81.871	178.18	228.87	1.6696	86.245	0.043019	0.0015721	182.75	0.0054718	43.954	45.760	184.16	83.810	165.64	112.10	20.804	16.761	0.015071
90.000	2.7808	993.15	0.0010069	35.562	35.900	156.92	82.164	181.44	223.64	1.7636	84.779	0.042570	0.0014849	187.77	0.0053258	43.957	45.748	184.03	84.173	170.50	111.41	20.790	16.945	0.015198
91.000	2.8331	985.42	0.0010148	35.718	36.066	157.35	82.470	185.00	218.38	1.8644	83.304	0.042113	0.0013987	192.98	0.0051819	43.958	45.733	183.90	84.546	175.82	110.71	20.774	17.138	0.015329
92.000	2.8862	977.48	0.0010230	35.877	36.234	157.80	82.792	188.88	213.08	1.9728	81.819	0.041649	0.0013136	198.41	0.0050400	43.956	45.714	183.76	84.932	181.69	109.99	20.756	17.341	0.015465
93.000	2.9400	969.31	0.0010317	36.037	36.404	158.24	83.130	193.14	207.73	2.0894	80.322	0.041177	0.0012297	204.08	0.0049000	43.951	45.693	183.61	85.331	188.19	109.26	20.734	17.555	0.015606
94.000	2.9947	960.89	0.0010407	36.200	36.577	158.70	83.486	197.84	202.34	2.2154	78.812	0.040697	0.0011469	210.00	0.0047618	43.943	45.667	183.46	85.745	195.44	108.51	20.709	17.781	0.015752
95.000	3.0501	952.20	0.0010502	36.364	36.752	159.15	83.862	203.06	196.91	2.3518	77.286	0.040207	0.0010654	216.21	0.0046252	43.932	45.638	183.29	86.176	203.55	107.75	20.679	18.020	0.015905
96.000	3.1064	943.23	0.0010602	36.531	36.929	159.62	84.259	208.89	191.43	2.4999	75.743	0.039706	0.00098519	222.72	0.0044900	43.918	45.604	183.12	86.625	212.71	106.98	20.643	18.274	0.016065
97.000	3.1634	933.93	0.0010707	36.701	37.110	160.09	84.680	215.46	185.90	2.6614	74.181	0.039195	0.00090634	229.57	0.0043560	43.900	45.566	182.93	87.094	223.12	106.19	20.600	18.545	0.016233
98.000	3.2214	924.29	0.0010819	36.873	37.294	160.56	85.127	222.91	180.32	2.8382	72.597	0.038671	0.00082890	236.80	0.0042230	43.877	45.522	182.73	87.585	235.06	105.38	20.548	18.835	0.016409
99.000	3.2802	914.25	0.0010938	37.049	37.482	161.05	85.603	231.46	174.68	3.0324	70.988	0.038134	0.00075296	244.45	0.0040908	43.849	45.472	182.52	88.103	248.89	104.56	20.485	19.146	0.016596
100.00	3.3399	903.78	0.0011065	37.228	37.674	161.54	86.111	241.38	168.99	3.2470	69.350	0.037581	0.00067861	252.58	0.0039592	43.816	45.415	182.29	88.650	265.09	103.73	20.410	19.482	0.016793
