Temperature (C)	Pressure (MPa)	Density (l, kg/m3)	Volume (l, m3/kg)	Internal Energy (l, kJ/mol)	Enthalpy (l, kJ/mol)	Entropy (l, J/mol*K)	Cv (l, J/mol*K)	Cp (l, J/mol*K)	Sound Spd. (l, m/s)	Joule-Thomson (l, K/MPa)	Viscosity (l, uPa*s)	Therm. Cond. (l, W/m*K)	Surf. Tension (l, N/m)	Density (v, kg/m3)	Volume (v, m3/kg)	Internal Energy (v, kJ/mol)	Enthalpy (v, kJ/mol)	Entropy (v, J/mol*K)	Cv (v, J/mol*K)	Cp (v, J/mol*K)	Sound Spd. (v, m/s)	Joule-Thomson (v, K/MPa)	Viscosity (v, uPa*s)	Therm. Cond. (v, W/m*K)
-100.00	0.00037947	683.90	0.0014622	-0.37171	-0.37167	3.8989	75.576	109.16	1558.1	-0.58859	936.46	0.14001	0.024645	0.015329	65.234	23.449	24.887	149.78	57.379	65.719	168.33	124.65	4.3978	0.0060349
-99.000	0.00041968	682.94	0.0014643	-0.26245	-0.26242	4.5280	75.703	109.35	1551.6	-0.58690	915.23	0.13962	0.024525	0.016857	59.321	23.506	24.953	149.32	57.610	65.952	168.77	122.21	4.4234	0.0061060
-98.000	0.00046355	681.97	0.0014663	-0.15301	-0.15297	5.1546	75.830	109.53	1545.1	-0.58520	894.73	0.13923	0.024406	0.018514	54.013	23.563	25.019	148.87	57.841	66.185	169.20	119.83	4.4491	0.0061773
-97.000	0.00051133	681.01	0.0014684	-0.043386	-0.043342	5.7788	75.958	109.72	1538.7	-0.58349	874.92	0.13884	0.024286	0.020308	49.242	23.621	25.084	148.43	58.072	66.419	169.64	117.52	4.4747	0.0062489
-96.000	0.00056333	680.04	0.0014705	0.066429	0.066477	6.4004	76.087	109.91	1532.2	-0.58178	855.77	0.13844	0.024167	0.022248	44.948	23.679	25.151	148.00	58.303	66.653	170.07	115.27	4.5003	0.0063207
-95.000	0.00061984	679.07	0.0014726	0.17643	0.17649	7.0196	76.216	110.10	1525.8	-0.58005	837.24	0.13805	0.024047	0.024344	41.078	23.737	25.217	147.58	58.534	66.887	170.50	113.08	4.5259	0.0063927
-94.000	0.00068119	678.10	0.0014747	0.28662	0.28668	7.6364	76.346	110.29	1519.4	-0.57833	819.32	0.13765	0.023928	0.026606	37.586	23.795	25.283	147.17	58.766	67.121	170.92	110.94	4.5514	0.0064650
-93.000	0.00074770	677.14	0.0014768	0.39701	0.39707	8.2509	76.476	110.48	1513.0	-0.57659	801.98	0.13725	0.023808	0.029044	34.431	23.854	25.350	146.76	58.997	67.356	171.35	108.86	4.5770	0.0065376
-92.000	0.00081975	676.17	0.0014789	0.50758	0.50765	8.8629	76.607	110.67	1506.7	-0.57484	785.19	0.13685	0.023689	0.031669	31.577	23.913	25.417	146.37	59.229	67.591	171.77	106.84	4.6025	0.0066104
-91.000	0.00089768	675.20	0.0014811	0.61834	0.61841	9.4727	76.738	110.86	1500.3	-0.57309	768.92	0.13644	0.023569	0.034492	28.992	23.972	25.484	145.99	59.461	67.826	172.20	104.87	4.6280	0.0066834
-90.000	0.00098191	674.22	0.0014832	0.72929	0.72937	10.080	76.870	111.05	1494.0	-0.57133	753.16	0.13604	0.023450	0.037526	26.648	24.031	25.552	145.61	59.693	68.062	172.62	102.95	4.6535	0.0067567
-89.000	0.0010728	673.25	0.0014853	0.84043	0.84052	10.685	77.003	111.24	1487.6	-0.56955	737.89	0.13564	0.023330	0.040782	24.521	24.090	25.619	145.24	59.926	68.298	173.04	101.07	4.6790	0.0068302
-88.000	0.0011709	672.28	0.0014875	0.95177	0.95187	11.288	77.136	111.43	1481.3	-0.56777	723.08	0.13523	0.023211	0.044273	22.587	24.150	25.687	144.88	60.158	68.534	173.45	99.249	4.7044	0.0069040
-87.000	0.0012765	671.30	0.0014896	1.0633	1.0634	11.889	77.270	111.63	1475.0	-0.56599	708.71	0.13482	0.023091	0.048013	20.828	24.210	25.755	144.53	60.391	68.772	173.87	97.470	4.7298	0.0069780
-86.000	0.0013902	670.33	0.0014918	1.1750	1.1751	12.488	77.404	111.82	1468.8	-0.56419	694.78	0.13441	0.022972	0.052015	19.225	24.270	25.823	144.19	60.624	69.009	174.28	95.735	4.7552	0.0070523
-85.000	0.0015124	669.35	0.0014940	1.2869	1.2871	13.084	77.540	112.01	1462.5	-0.56238	681.25	0.13400	0.022852	0.056294	17.764	24.330	25.891	143.85	60.858	69.247	174.69	94.044	4.7806	0.0071268
-84.000	0.0016437	668.38	0.0014962	1.3990	1.3992	13.678	77.675	112.21	1456.2	-0.56056	668.12	0.13359	0.022733	0.060864	16.430	24.390	25.960	143.53	61.092	69.486	175.10	92.394	4.8060	0.0072015
-83.000	0.0017846	667.40	0.0014984	1.5113	1.5115	14.270	77.812	112.40	1450.0	-0.55873	655.37	0.13318	0.022614	0.065741	15.211	24.451	26.029	143.21	61.326	69.726	175.50	90.786	4.8313	0.0072765
-82.000	0.0019356	666.42	0.0015006	1.6238	1.6240	14.860	77.950	112.60	1443.7	-0.55689	642.97	0.13277	0.022494	0.070941	14.096	24.512	26.097	142.89	61.561	69.966	175.91	89.216	4.8566	0.0073517
-81.000	0.0020974	665.44	0.0015028	1.7365	1.7367	15.449	78.088	112.80	1437.5	-0.55504	630.93	0.13235	0.022375	0.076479	13.075	24.573	26.167	142.59	61.796	70.206	176.31	87.685	4.8819	0.0074271
-80.000	0.0022704	664.46	0.0015050	1.8494	1.8496	16.034	78.227	112.99	1431.3	-0.55318	619.23	0.13194	0.022255	0.082374	12.140	24.634	26.236	142.29	62.031	70.448	176.71	86.190	4.9072	0.0075028
-79.000	0.0024555	663.47	0.0015072	1.9625	1.9627	16.618	78.366	113.19	1425.1	-0.55131	607.85	0.13152	0.022136	0.088643	11.281	24.695	26.305	142.00	62.267	70.690	177.10	84.732	4.9324	0.0075787
-78.000	0.0026532	662.49	0.0015095	2.0758	2.0760	17.200	78.507	113.39	1418.9	-0.54943	596.78	0.13111	0.022017	0.095303	10.493	24.757	26.375	141.71	62.503	70.933	177.50	83.309	4.9576	0.0076549
-77.000	0.0028641	661.51	0.0015117	2.1893	2.1895	17.781	78.648	113.59	1412.8	-0.54754	586.01	0.13069	0.021897	0.10237	9.7682	24.819	26.445	141.44	62.740	71.176	177.89	81.919	4.9828	0.0077312
-76.000	0.0030891	660.52	0.0015140	2.3030	2.3032	18.359	78.790	113.79	1406.6	-0.54563	575.53	0.13027	0.021778	0.10987	9.1014	24.881	26.515	141.17	62.977	71.421	178.28	80.563	5.0080	0.0078078
-75.000	0.0033287	659.53	0.0015162	2.4169	2.4172	18.935	78.933	114.00	1400.5	-0.54371	565.33	0.12985	0.021659	0.11782	8.4874	24.943	26.585	140.90	63.215	71.666	178.67	79.239	5.0331	0.0078847
-74.000	0.0035839	658.55	0.0015185	2.5309	2.5313	19.509	79.076	114.20	1394.3	-0.54178	555.39	0.12943	0.021539	0.12624	7.9214	25.005	26.655	140.64	63.453	71.912	179.06	77.945	5.0583	0.0079618
-73.000	0.0038553	657.56	0.0015208	2.6452	2.6456	20.082	79.221	114.40	1388.2	-0.53984	545.71	0.12901	0.021420	0.13515	7.3992	25.068	26.726	140.39	63.692	72.159	179.44	76.682	5.0834	0.0080391
-72.000	0.0041438	656.57	0.0015231	2.7597	2.7601	20.652	79.366	114.61	1382.1	-0.53789	536.29	0.12859	0.021301	0.14457	6.9170	25.131	26.796	140.15	63.931	72.407	179.82	75.448	5.1084	0.0081166
-71.000	0.0044502	655.58	0.0015254	2.8744	2.8748	21.221	79.512	114.81	1376.0	-0.53592	527.10	0.12817	0.021182	0.15453	6.4714	25.194	26.867	139.91	64.171	72.655	180.20	74.243	5.1335	0.0081944
-70.000	0.0047753	654.58	0.0015277	2.9893	2.9898	21.788	79.659	115.02	1369.9	-0.53394	518.15	0.12775	0.021062	0.16504	6.0592	25.257	26.938	139.67	64.412	72.905	180.57	73.065	5.1585	0.0082724
-69.000	0.0051201	653.59	0.0015300	3.1044	3.1049	22.353	79.807	115.22	1363.8	-0.53195	509.41	0.12733	0.020943	0.17613	5.6776	25.320	27.010	139.45	64.653	73.156	180.95	71.915	5.1835	0.0083506
-68.000	0.0054855	652.59	0.0015323	3.2198	3.2203	22.917	79.955	115.43	1357.7	-0.52994	500.90	0.12690	0.020824	0.18783	5.3241	25.383	27.081	139.23	64.895	73.408	181.32	70.790	5.2085	0.0084290
-67.000	0.0058724	651.60	0.0015347	3.3353	3.3358	23.479	80.105	115.64	1351.6	-0.52792	492.60	0.12648	0.020705	0.20015	4.9963	25.447	27.153	139.01	65.137	73.660	181.69	69.691	5.2334	0.0085077
-66.000	0.0062818	650.60	0.0015370	3.4510	3.4516	24.039	80.255	115.85	1345.6	-0.52589	484.49	0.12606	0.020586	0.21312	4.6921	25.511	27.224	138.80	65.380	73.914	182.05	68.617	5.2583	0.0085866
-65.000	0.0067146	649.60	0.0015394	3.5670	3.5676	24.597	80.407	116.06	1339.5	-0.52384	476.59	0.12563	0.020467	0.22678	4.4096	25.575	27.296	138.59	65.624	74.169	182.41	67.567	5.2832	0.0086657
-64.000	0.0071720	648.60	0.0015418	3.6831	3.6838	25.154	80.559	116.27	1333.5	-0.52177	468.87	0.12521	0.020348	0.24114	4.1470	25.639	27.368	138.39	65.868	74.425	182.77	66.540	5.3081	0.0087451
-63.000	0.0076550	647.60	0.0015442	3.7995	3.8002	25.709	80.712	116.49	1327.5	-0.51970	461.33	0.12478	0.020229	0.25623	3.9028	25.704	27.440	138.20	66.113	74.682	183.13	65.536	5.3330	0.0088246
-62.000	0.0081646	646.59	0.0015466	3.9161	3.9168	26.262	80.866	116.70	1321.5	-0.51760	453.97	0.12436	0.020110	0.27208	3.6754	25.768	27.513	138.01	66.359	74.941	183.48	64.555	5.3578	0.0089044
-61.000	0.0087020	645.59	0.0015490	4.0329	4.0336	26.814	81.021	116.92	1315.4	-0.51550	446.79	0.12393	0.019991	0.28871	3.4636	25.833	27.585	137.83	66.606	75.200	183.83	63.595	5.3826	0.0089844
-60.000	0.0092683	644.58	0.0015514	4.1499	4.1507	27.364	81.177	117.13	1309.4	-0.51337	439.76	0.12351	0.019872	0.30616	3.2662	25.898	27.658	137.65	66.853	75.461	184.18	62.656	5.4073	0.0090647
-59.000	0.0098648	643.58	0.0015538	4.2671	4.2680	27.913	81.333	117.35	1303.5	-0.51123	432.90	0.12308	0.019753	0.32446	3.0821	25.963	27.731	137.47	67.101	75.723	184.53	61.737	5.4321	0.0091451
-58.000	0.010493	642.57	0.0015563	4.3845	4.3855	28.460	81.491	117.57	1297.5	-0.50908	426.20	0.12266	0.019634	0.34362	2.9102	26.029	27.803	137.30	67.349	75.986	184.87	60.839	5.4568	0.0092258
-57.000	0.011153	641.56	0.0015587	4.5022	4.5032	29.006	81.650	117.79	1291.5	-0.50691	419.64	0.12223	0.019515	0.36370	2.7496	26.094	27.877	137.14	67.599	76.250	185.21	59.960	5.4815	0.0093067
-56.000	0.011847	640.54	0.0015612	4.6201	4.6211	29.550	81.809	118.01	1285.5	-0.50472	413.23	0.12181	0.019396	0.38470	2.5994	26.160	27.950	136.98	67.849	76.516	185.54	59.100	5.5062	0.0093878
-55.000	0.012576	639.53	0.0015636	4.7382	4.7393	30.092	81.970	118.23	1279.6	-0.50251	406.97	0.12138	0.019277	0.40667	2.4590	26.226	28.023	136.83	68.100	76.783	185.88	58.258	5.5308	0.0094691
-54.000	0.013342	638.52	0.0015661	4.8565	4.8577	30.633	82.131	118.45	1273.6	-0.50029	400.83	0.12095	0.019159	0.42964	2.3275	26.292	28.097	136.67	68.352	77.052	186.20	57.434	5.5554	0.0095506
-53.000	0.014146	637.50	0.0015686	4.9750	4.9763	31.173	82.293	118.68	1267.7	-0.49805	394.84	0.12053	0.019040	0.45364	2.2044	26.358	28.170	136.53	68.604	77.321	186.53	56.628	5.5800	0.0096324
-52.000	0.014988	636.48	0.0015711	5.0938	5.0951	31.711	82.457	118.90	1261.7	-0.49580	388.97	0.12010	0.018921	0.47870	2.0890	26.424	28.244	136.39	68.858	77.592	186.85	55.839	5.6046	0.0097144
-51.000	0.015872	635.46	0.0015737	5.2128	5.2142	32.248	82.621	119.13	1255.8	-0.49352	383.23	0.11968	0.018803	0.50486	1.9808	26.491	28.318	136.25	69.112	77.865	187.17	55.066	5.6291	0.0097966
-50.000	0.016797	634.44	0.0015762	5.3320	5.3335	32.784	82.786	119.36	1249.9	-0.49123	377.61	0.11925	0.018684	0.53214	1.8792	26.557	28.392	136.12	69.367	78.139	187.49	54.310	5.6536	0.0098790
-49.000	0.017766	633.41	0.0015787	5.4514	5.4530	33.318	82.952	119.59	1244.0	-0.48892	372.11	0.11883	0.018566	0.56060	1.7838	26.624	28.466	135.99	69.623	78.414	187.80	53.570	5.6781	0.0099616
-48.000	0.018780	632.39	0.0015813	5.5711	5.5728	33.850	83.119	119.82	1238.1	-0.48659	366.72	0.11840	0.018447	0.59025	1.6942	26.691	28.541	135.86	69.880	78.691	188.11	52.844	5.7026	0.010044
-47.000	0.019840	631.36	0.0015839	5.6910	5.6928	34.382	83.287	120.05	1232.2	-0.48424	361.44	0.11797	0.018329	0.62114	1.6099	26.758	28.615	135.74	70.137	78.969	188.42	52.134	5.7270	0.010127
-46.000	0.020949	630.33	0.0015865	5.8111	5.8130	34.912	83.456	120.28	1226.3	-0.48187	356.27	0.11755	0.018210	0.65331	1.5307	26.826	28.690	135.62	70.396	79.249	188.72	51.439	5.7514	0.010211
-45.000	0.022107	629.30	0.0015891	5.9315	5.9335	35.441	83.626	120.52	1220.4	-0.47948	351.21	0.11712	0.018092	0.68678	1.4561	26.893	28.764	135.51	70.655	79.531	189.01	50.758	5.7758	0.010294
-44.000	0.023317	628.27	0.0015917	6.0520	6.0542	35.968	83.797	120.75	1214.5	-0.47707	346.25	0.11670	0.017974	0.72160	1.3858	26.961	28.839	135.40	70.915	79.814	189.31	50.091	5.8002	0.010378
-43.000	0.024579	627.24	0.0015943	6.1729	6.1751	36.494	83.969	120.99	1208.6	-0.47464	341.39	0.11628	0.017856	0.75781	1.3196	27.029	28.914	135.29	71.176	80.098	189.60	49.437	5.8246	0.010462
-42.000	0.025897	626.20	0.0015969	6.2939	6.2963	37.019	84.142	121.23	1202.8	-0.47219	336.63	0.11585	0.017737	0.79544	1.2572	27.097	28.989	135.19	71.438	80.384	189.89	48.797	5.8489	0.010546
-41.000	0.027271	625.16	0.0015996	6.4152	6.4178	37.543	84.316	121.47	1196.9	-0.46972	331.96	0.11543	0.017619	0.83453	1.1983	27.165	29.064	135.09	71.701	80.672	190.17	48.169	5.8732	0.010630
-40.000	0.028702	624.12	0.0016022	6.5368	6.5394	38.065	84.491	121.71	1191.1	-0.46722	327.39	0.11501	0.017501	0.87513	1.1427	27.233	29.139	135.00	71.965	80.961	190.45	47.555	5.8975	0.010715
-39.000	0.030194	623.08	0.0016049	6.6585	6.6614	38.586	84.667	121.95	1185.2	-0.46471	322.90	0.11458	0.017383	0.91727	1.0902	27.302	29.215	134.91	72.230	81.252	190.72	46.952	5.9218	0.010800
-38.000	0.031748	622.04	0.0016076	6.7805	6.7835	39.106	84.843	122.20	1179.4	-0.46217	318.50	0.11416	0.017265	0.96099	1.0406	27.370	29.290	134.82	72.495	81.545	191.00	46.362	5.9460	0.010885
-37.000	0.033365	620.99	0.0016103	6.9028	6.9059	39.625	85.021	122.44	1173.5	-0.45961	314.18	0.11374	0.017147	1.0063	0.99370	27.439	29.366	134.73	72.762	81.839	191.26	45.783	5.9703	0.010970
-36.000	0.035047	619.94	0.0016130	7.0253	7.0286	40.143	85.200	122.69	1167.7	-0.45702	309.95	0.11332	0.017029	1.0534	0.94934	27.508	29.442	134.65	73.029	82.135	191.53	45.216	5.9945	0.011055
-35.000	0.036797	618.89	0.0016158	7.1480	7.1515	40.659	85.379	122.94	1161.9	-0.45442	305.80	0.11290	0.016911	1.1021	0.90737	27.577	29.518	134.57	73.297	82.433	191.79	44.661	6.0187	0.011141
-34.000	0.038616	617.84	0.0016185	7.2710	7.2747	41.175	85.560	123.19	1156.1	-0.45179	301.72	0.11247	0.016794	1.1526	0.86763	27.646	29.593	134.50	73.567	82.732	192.04	44.116	6.0429	0.011227
-33.000	0.040506	616.79	0.0016213	7.3943	7.3981	41.689	85.742	123.44	1150.3	-0.44913	297.73	0.11205	0.016676	1.2048	0.82999	27.715	29.669	134.43	73.837	83.033	192.29	43.582	6.0671	0.011313
-32.000	0.042469	615.73	0.0016241	7.5177	7.5218	42.202	85.924	123.69	1144.5	-0.44645	293.80	0.11163	0.016558	1.2590	0.79431	27.785	29.746	134.36	74.108	83.336	192.54	43.058	6.0912	0.011400
-31.000	0.044507	614.67	0.0016269	7.6415	7.6457	42.714	86.108	123.95	1138.7	-0.44375	289.95	0.11122	0.016441	1.3150	0.76048	27.855	29.822	134.29	74.380	83.641	192.78	42.544	6.1154	0.011486
-30.000	0.046622	613.61	0.0016297	7.7655	7.7699	43.225	86.292	124.20	1132.9	-0.44102	286.17	0.11080	0.016323	1.3729	0.72839	27.924	29.898	134.23	74.653	83.948	193.02	42.041	6.1395	0.011573
-29.000	0.048817	612.55	0.0016325	7.8897	7.8943	43.735	86.478	124.46	1127.1	-0.43826	282.46	0.11038	0.016206	1.4328	0.69794	27.994	29.974	134.17	74.927	84.256	193.25	41.547	6.1636	0.011660
-28.000	0.051092	611.48	0.0016354	8.0142	8.0190	44.244	86.664	124.72	1121.3	-0.43548	278.82	0.10996	0.016089	1.4947	0.66902	28.064	30.051	134.11	75.202	84.567	193.48	41.063	6.1877	0.011747
-27.000	0.053451	610.42	0.0016382	8.1389	8.1440	44.752	86.851	124.98	1115.6	-0.43267	275.24	0.10955	0.015971	1.5587	0.64155	28.134	30.127	134.06	75.477	84.879	193.70	40.588	6.2118	0.011835
-26.000	0.055895	609.35	0.0016411	8.2639	8.2693	45.258	87.039	125.24	1109.8	-0.42983	271.72	0.10913	0.015854	1.6248	0.61544	28.205	30.204	134.01	75.754	85.193	193.92	40.122	6.2359	0.011923
-25.000	0.058427	608.27	0.0016440	8.3892	8.3948	45.764	87.229	125.50	1104.0	-0.42696	268.27	0.10872	0.015737	1.6931	0.59062	28.275	30.281	133.96	76.032	85.509	194.14	39.665	6.2600	0.012011
-24.000	0.061049	607.20	0.0016469	8.5147	8.5205	46.269	87.419	125.77	1098.3	-0.42407	264.88	0.10830	0.015620	1.7636	0.56701	28.346	30.358	133.92	76.311	85.827	194.35	39.217	6.2841	0.012099
-23.000	0.063762	606.12	0.0016498	8.6405	8.6466	46.773	87.610	126.04	1092.5	-0.42114	261.55	0.10789	0.015503	1.8364	0.54455	28.416	30.435	133.87	76.590	86.147	194.55	38.778	6.3081	0.012187
-22.000	0.066570	605.04	0.0016528	8.7665	8.7729	47.276	87.802	126.31	1086.8	-0.41819	258.28	0.10747	0.015386	1.9115	0.52316	28.487	30.512	133.83	76.871	86.469	194.76	38.346	6.3322	0.012276
-21.000	0.069474	603.96	0.0016557	8.8928	8.8995	47.778	87.995	126.58	1081.0	-0.41521	255.06	0.10706	0.015269	1.9889	0.50279	28.558	30.589	133.79	77.152	86.793	194.95	37.923	6.3563	0.012365
-20.000	0.072477	602.88	0.0016587	9.0194	9.0264	48.279	88.189	126.85	1075.3	-0.41219	251.90	0.10665	0.015152	2.0687	0.48339	28.629	30.666	133.76	77.435	87.119	195.14	37.508	6.3803	0.012454
-19.000	0.075581	601.79	0.0016617	9.1462	9.1535	48.779	88.383	127.12	1069.6	-0.40915	248.79	0.10624	0.015036	2.1511	0.46489	28.701	30.743	133.73	77.718	87.447	195.33	37.101	6.4044	0.012544
-18.000	0.078788	600.70	0.0016647	9.2733	9.2809	49.278	88.579	127.40	1063.8	-0.40607	245.74	0.10583	0.014919	2.2359	0.44725	28.772	30.820	133.70	78.003	87.777	195.51	36.701	6.4285	0.012633
-17.000	0.082101	599.61	0.0016678	9.4007	9.4086	49.776	88.776	127.67	1058.1	-0.40296	242.73	0.10542	0.014802	2.3233	0.43042	28.843	30.897	133.67	78.288	88.110	195.69	36.309	6.4525	0.012724
-16.000	0.085522	598.51	0.0016708	9.5283	9.5366	50.274	88.973	127.95	1052.4	-0.39981	239.78	0.10501	0.014686	2.4133	0.41437	28.915	30.975	133.64	78.574	88.444	195.86	35.924	6.4766	0.012814
-15.000	0.089053	597.41	0.0016739	9.6562	9.6649	50.770	89.172	128.23	1046.7	-0.39663	236.88	0.10461	0.014570	2.5060	0.39904	28.987	31.052	133.62	78.862	88.780	196.03	35.546	6.5007	0.012904
-14.000	0.092697	596.31	0.0016770	9.7844	9.7935	51.266	89.371	128.52	1041.0	-0.39342	234.02	0.10420	0.014453	2.6015	0.38440	29.059	31.130	133.60	79.150	89.119	196.19	35.176	6.5248	0.012995
-13.000	0.096456	595.21	0.0016801	9.9129	9.9223	51.761	89.571	128.80	1035.3	-0.39017	231.22	0.10380	0.014337	2.6997	0.37041	29.131	31.207	133.58	79.439	89.460	196.34	34.812	6.5489	0.013086
-12.000	0.10033	594.10	0.0016832	10.042	10.051	52.255	89.773	129.09	1029.6	-0.38689	228.45	0.10339	0.014221	2.8008	0.35704	29.203	31.285	133.56	79.729	89.803	196.49	34.455	6.5730	0.013178
-11.000	0.10433	592.99	0.0016864	10.171	10.181	52.748	89.975	129.38	1023.9	-0.38357	225.74	0.10299	0.014105	2.9048	0.34426	29.275	31.362	133.55	80.020	90.148	196.64	34.104	6.5972	0.013269
-10.000	0.10845	591.88	0.0016895	10.300	10.311	53.240	90.178	129.67	1018.2	-0.38021	223.07	0.10259	0.013989	3.0117	0.33204	29.347	31.440	133.54	80.312	90.496	196.78	33.760	6.6213	0.013361
-9.0000	0.11269	590.76	0.0016927	10.430	10.441	53.732	90.381	129.96	1012.5	-0.37681	220.44	0.10219	0.013873	3.1216	0.32034	29.420	31.518	133.52	80.605	90.846	196.91	33.423	6.6455	0.013454
-8.0000	0.11707	589.64	0.0016959	10.559	10.571	54.223	90.586	130.25	1006.8	-0.37338	217.85	0.10179	0.013758	3.2347	0.30915	29.492	31.596	133.52	80.899	91.198	197.04	33.091	6.6697	0.013546
-7.0000	0.12157	588.52	0.0016992	10.690	10.702	54.713	90.792	130.55	1001.1	-0.36990	215.30	0.10139	0.013642	3.3508	0.29843	29.565	31.674	133.51	81.194	91.553	197.17	32.766	6.6939	0.013639
-6.0000	0.12621	587.40	0.0017024	10.820	10.832	55.202	90.998	130.84	995.45	-0.36638	212.80	0.10099	0.013526	3.4702	0.28817	29.638	31.751	133.51	81.490	91.909	197.29	32.446	6.7181	0.013732
-5.0000	0.13098	586.27	0.0017057	10.951	10.964	55.690	91.206	131.14	989.78	-0.36282	210.33	0.10060	0.013411	3.5928	0.27833	29.710	31.829	133.50	81.787	92.269	197.40	32.133	6.7424	0.013826
-4.0000	0.13589	585.14	0.0017090	11.082	11.095	56.178	91.414	131.45	984.11	-0.35922	207.90	0.10020	0.013296	3.7188	0.26891	29.783	31.907	133.50	82.085	92.631	197.50	31.825	6.7667	0.013920
-3.0000	0.14094	584.00	0.0017123	11.213	11.227	56.665	91.623	131.75	978.44	-0.35558	205.51	0.099808	0.013180	3.8481	0.25987	29.856	31.985	133.50	82.383	92.995	197.61	31.522	6.7910	0.014014
-2.0000	0.14613	582.86	0.0017157	11.345	11.359	57.152	91.833	132.06	972.78	-0.35189	203.16	0.099415	0.013065	3.9808	0.25120	29.930	32.063	133.51	82.683	93.362	197.70	31.226	6.8153	0.014109
-1.0000	0.15147	581.72	0.0017190	11.477	11.492	57.637	92.044	132.36	967.11	-0.34815	200.84	0.099023	0.012950	4.1171	0.24289	30.003	32.141	133.51	82.983	93.731	197.79	30.934	6.8397	0.014204
0.0000	0.15696	580.58	0.0017224	11.609	11.624	58.122	92.256	132.68	961.46	-0.34437	198.56	0.098632	0.012835	4.2570	0.23491	30.076	32.219	133.52	83.285	94.103	197.87	30.648	6.8642	0.014299
1.0000	0.16259	579.43	0.0017258	11.741	11.758	58.606	92.468	132.99	955.80	-0.34054	196.32	0.098242	0.012721	4.4004	0.22725	30.150	32.297	133.53	83.587	94.477	197.95	30.367	6.8886	0.014394
2.0000	0.16839	578.28	0.0017293	11.874	11.891	59.090	92.681	133.30	950.15	-0.33666	194.10	0.097854	0.012606	4.5476	0.21989	30.223	32.375	133.54	83.891	94.854	198.02	30.092	6.9132	0.014490
3.0000	0.17434	577.12	0.0017327	12.007	12.025	59.573	92.896	133.62	944.50	-0.33273	191.92	0.097466	0.012491	4.6986	0.21283	30.297	32.454	133.55	84.195	95.234	198.09	29.821	6.9377	0.014587
4.0000	0.18045	575.96	0.0017362	12.140	12.159	60.055	93.111	133.94	938.85	-0.32875	189.78	0.097080	0.012377	4.8534	0.20604	30.371	32.532	133.56	84.500	95.616	198.15	29.555	6.9623	0.014684
5.0000	0.18672	574.80	0.0017397	12.274	12.293	60.537	93.327	134.26	933.21	-0.32472	187.66	0.096695	0.012263	5.0121	0.19952	30.445	32.610	133.58	84.806	96.002	198.20	29.294	6.9870	0.014781
6.0000	0.19316	573.63	0.0017433	12.408	12.428	61.018	93.543	134.58	927.57	-0.32063	185.58	0.096311	0.012149	5.1749	0.19324	30.518	32.688	133.60	85.113	96.389	198.25	29.038	7.0117	0.014878
7.0000	0.19976	572.46	0.0017468	12.543	12.563	61.499	93.761	134.91	921.93	-0.31649	183.53	0.095929	0.012034	5.3416	0.18721	30.592	32.766	133.61	85.421	96.780	198.29	28.786	7.0365	0.014976
8.0000	0.20654	571.28	0.0017504	12.677	12.698	61.978	93.979	135.24	916.29	-0.31229	181.50	0.095547	0.011920	5.5125	0.18140	30.667	32.844	133.63	85.730	97.174	198.33	28.539	7.0613	0.015075
9.0000	0.21349	570.11	0.0017541	12.812	12.834	62.458	94.198	135.57	910.65	-0.30804	179.51	0.095167	0.011807	5.6876	0.17582	30.741	32.922	133.66	86.040	97.571	198.36	28.296	7.0862	0.015173
10.000	0.22061	568.92	0.0017577	12.947	12.970	62.936	94.418	135.90	905.02	-0.30373	177.54	0.094788	0.011693	5.8670	0.17044	30.815	33.000	133.68	86.350	97.970	198.38	28.058	7.1112	0.015273
11.000	0.22792	567.74	0.0017614	13.083	13.106	63.415	94.639	136.24	899.39	-0.29935	175.60	0.094411	0.011579	6.0507	0.16527	30.889	33.079	133.70	86.662	98.373	198.39	27.824	7.1362	0.015372
12.000	0.23541	566.55	0.0017651	13.219	13.243	63.892	94.861	136.58	893.76	-0.29492	173.69	0.094034	0.011466	6.2389	0.16028	30.964	33.157	133.73	86.975	98.778	198.40	27.594	7.1614	0.015473
13.000	0.24308	565.35	0.0017688	13.355	13.380	64.369	95.083	136.92	888.13	-0.29042	171.81	0.093659	0.011353	6.4316	0.15548	31.038	33.235	133.76	87.288	99.187	198.41	27.369	7.1866	0.015573
14.000	0.25094	564.15	0.0017726	13.492	13.517	64.846	95.306	137.26	882.50	-0.28586	169.96	0.093285	0.011240	6.6288	0.15086	31.113	33.313	133.78	87.602	99.599	198.40	27.148	7.2118	0.015675
15.000	0.25899	562.95	0.0017764	13.628	13.655	65.322	95.530	137.61	876.87	-0.28123	168.12	0.092913	0.011127	6.8308	0.14640	31.187	33.391	133.81	87.918	100.01	198.39	26.930	7.2372	0.015776
16.000	0.26724	561.74	0.0017802	13.766	13.793	65.797	95.755	137.96	871.25	-0.27653	166.32	0.092542	0.011014	7.0375	0.14210	31.262	33.469	133.84	88.234	100.43	198.37	26.717	7.2627	0.015878
17.000	0.27568	560.53	0.0017840	13.903	13.932	66.272	95.980	138.31	865.62	-0.27176	164.54	0.092172	0.010901	7.2490	0.13795	31.337	33.547	133.88	88.551	100.85	198.35	26.508	7.2882	0.015981
18.000	0.28432	559.31	0.0017879	14.041	14.071	66.747	96.207	138.67	860.00	-0.26692	162.78	0.091804	0.010788	7.4654	0.13395	31.411	33.625	133.91	88.869	101.28	198.32	26.302	7.3138	0.016084
19.000	0.29317	558.09	0.0017918	14.179	14.210	67.221	96.434	139.03	854.38	-0.26200	161.05	0.091436	0.010676	7.6869	0.13009	31.486	33.703	133.94	89.187	101.71	198.28	26.100	7.3396	0.016188
20.000	0.30222	556.86	0.0017958	14.318	14.349	67.694	96.661	139.39	848.76	-0.25701	159.34	0.091071	0.010564	7.9134	0.12637	31.561	33.781	133.98	89.507	102.14	198.24	25.902	7.3654	0.016292
21.000	0.31148	555.63	0.0017998	14.457	14.489	68.167	96.890	139.75	843.14	-0.25194	157.65	0.090706	0.010451	8.1452	0.12277	31.636	33.859	134.02	89.828	102.58	198.18	25.708	7.3914	0.016397
22.000	0.32095	554.39	0.0018038	14.596	14.629	68.640	97.119	140.12	837.51	-0.24679	155.99	0.090343	0.010339	8.3822	0.11930	31.711	33.937	134.06	90.149	103.01	198.13	25.517	7.4175	0.016503
23.000	0.33064	553.15	0.0018078	14.735	14.770	69.112	97.350	140.49	831.89	-0.24156	154.35	0.089981	0.010228	8.6246	0.11595	31.786	34.015	134.09	90.471	103.46	198.06	25.330	7.4437	0.016609
24.000	0.34054	551.90	0.0018119	14.875	14.911	69.584	97.580	140.86	826.27	-0.23625	152.73	0.089621	0.010116	8.8724	0.11271	31.861	34.092	134.13	90.795	103.90	197.99	25.146	7.4700	0.016716
25.000	0.35067	550.65	0.0018160	15.015	15.052	70.056	97.812	141.24	820.65	-0.23085	151.13	0.089262	0.010004	9.1258	0.10958	31.937	34.170	134.18	91.119	104.36	197.90	24.966	7.4965	0.016823
26.000	0.36102	549.39	0.0018202	15.156	15.194	70.527	98.045	141.62	815.03	-0.22535	149.55	0.088905	0.0098931	9.3849	0.10655	32.012	34.248	134.22	91.444	104.81	197.82	24.789	7.5230	0.016931
27.000	0.37160	548.13	0.0018244	15.297	15.336	70.997	98.278	142.00	809.41	-0.21977	147.99	0.088549	0.0097820	9.6497	0.10363	32.087	34.325	134.26	91.770	105.27	197.72	24.615	7.5498	0.017040
28.000	0.38240	546.86	0.0018286	15.438	15.479	71.467	98.512	142.39	803.79	-0.21409	146.45	0.088194	0.0096710	9.9204	0.10080	32.162	34.403	134.31	92.097	105.73	197.62	24.445	7.5766	0.017150
29.000	0.39344	545.59	0.0018329	15.580	15.622	71.937	98.746	142.78	798.16	-0.20832	144.93	0.087841	0.0095601	10.197	0.098067	32.238	34.480	134.35	92.425	106.20	197.51	24.278	7.6037	0.017260
30.000	0.40472	544.31	0.0018372	15.722	15.765	72.407	98.982	143.17	792.54	-0.20245	143.43	0.087489	0.0094495	10.480	0.095422	32.313	34.558	134.40	92.753	106.67	197.39	24.114	7.6308	0.017371
31.000	0.41624	543.03	0.0018415	15.864	15.909	72.876	99.218	143.57	786.91	-0.19647	141.95	0.087139	0.0093390	10.769	0.092862	32.388	34.635	134.44	93.083	107.15	197.26	23.953	7.6582	0.017482
32.000	0.42800	541.74	0.0018459	16.007	16.053	73.345	99.455	143.97	781.29	-0.19039	140.49	0.086790	0.0092287	11.064	0.090384	32.464	34.712	134.49	93.413	107.63	197.13	23.796	7.6857	0.017595
33.000	0.44001	540.44	0.0018503	16.150	16.197	73.813	99.693	144.38	775.66	-0.18419	139.04	0.086442	0.0091186	11.365	0.087986	32.539	34.789	134.54	93.745	108.11	196.99	23.641	7.7134	0.017708
34.000	0.45226	539.14	0.0018548	16.294	16.342	74.282	99.931	144.79	770.03	-0.17789	137.61	0.086096	0.0090086	11.674	0.085663	32.615	34.866	134.59	94.077	108.60	196.84	23.490	7.7412	0.017822
35.000	0.46477	537.83	0.0018593	16.437	16.488	74.750	100.17	145.20	764.40	-0.17147	136.20	0.085752	0.0088989	11.988	0.083414	32.690	34.943	134.64	94.411	109.10	196.68	23.341	7.7693	0.017937
36.000	0.47753	536.51	0.0018639	16.582	16.633	75.217	100.41	145.62	758.76	-0.16493	134.81	0.085409	0.0087893	12.310	0.081236	32.766	35.020	134.69	94.745	109.60	196.51	23.196	7.7975	0.018052
37.000	0.49055	535.19	0.0018685	16.726	16.780	75.685	100.65	146.04	753.13	-0.15827	133.43	0.085067	0.0086800	12.638	0.079125	32.841	35.097	134.75	95.080	110.11	196.34	23.053	7.8259	0.018169
38.000	0.50384	533.86	0.0018731	16.871	16.926	76.152	100.89	146.47	747.49	-0.15148	132.07	0.084727	0.0085708	12.974	0.077079	32.917	35.174	134.80	95.417	110.62	196.16	22.913	7.8546	0.018286
39.000	0.51739	532.53	0.0018778	17.017	17.073	76.619	101.13	146.90	741.85	-0.14456	130.72	0.084388	0.0084619	13.316	0.075096	32.992	35.250	134.85	95.754	111.13	195.97	22.776	7.8835	0.018405
40.000	0.53121	531.19	0.0018826	17.162	17.220	77.085	101.38	147.34	736.20	-0.13751	129.39	0.084051	0.0083531	13.666	0.073174	33.067	35.327	134.91	96.092	111.65	195.77	22.642	7.9125	0.018524
41.000	0.54530	529.84	0.0018874	17.308	17.368	77.552	101.62	147.78	730.56	-0.13031	128.08	0.083715	0.0082445	14.023	0.071310	33.143	35.403	134.96	96.431	112.18	195.56	22.510	7.9419	0.018645
42.000	0.55966	528.48	0.0018922	17.455	17.517	78.018	101.87	148.22	724.90	-0.12298	126.78	0.083381	0.0081362	14.388	0.069503	33.218	35.479	135.02	96.771	112.72	195.34	22.381	7.9714	0.018766
43.000	0.57431	527.12	0.0018971	17.602	17.665	78.484	102.11	148.67	719.25	-0.11549	125.49	0.083048	0.0080281	14.760	0.067749	33.294	35.555	135.07	97.112	113.26	195.12	22.255	8.0012	0.018888
44.000	0.58923	525.75	0.0019020	17.749	17.814	78.950	102.36	149.13	713.59	-0.10785	124.22	0.082717	0.0079202	15.141	0.066047	33.369	35.631	135.13	97.454	113.80	194.88	22.132	8.0313	0.019012
45.000	0.60444	524.37	0.0019070	17.897	17.964	79.415	102.60	149.59	707.93	-0.10005	122.96	0.082387	0.0078125	15.529	0.064396	33.445	35.707	135.18	97.797	114.35	194.64	22.011	8.0616	0.019136
46.000	0.61994	522.99	0.0019121	18.045	18.114	79.881	102.85	150.06	702.27	-0.092093	121.72	0.082059	0.0077050	15.925	0.062793	33.520	35.783	135.24	98.141	114.91	194.39	21.893	8.0922	0.019262
47.000	0.63574	521.60	0.0019172	18.194	18.265	80.346	103.10	150.53	696.60	-0.083962	120.48	0.081732	0.0075978	16.330	0.061237	33.595	35.858	135.30	98.485	115.48	194.13	21.777	8.1231	0.019389
48.000	0.65182	520.20	0.0019224	18.343	18.415	80.811	103.35	151.01	690.92	-0.075657	119.27	0.081407	0.0074907	16.743	0.059726	33.671	35.933	135.36	98.831	116.05	193.86	21.664	8.1543	0.019517
49.000	0.66821	518.79	0.0019276	18.492	18.567	81.276	103.60	151.49	685.24	-0.067170	118.06	0.081083	0.0073840	17.165	0.058259	33.746	36.009	135.42	99.177	116.63	193.58	21.554	8.1858	0.019646
50.000	0.68490	517.37	0.0019328	18.642	18.719	81.741	103.85	151.98	679.56	-0.058495	116.87	0.080761	0.0072774	17.595	0.056833	33.821	36.084	135.48	99.523	117.22	193.29	21.446	8.2176	0.019777
51.000	0.70189	515.95	0.0019382	18.792	18.871	82.206	104.10	152.48	673.87	-0.049626	115.69	0.080441	0.0071711	18.035	0.055448	33.896	36.158	135.54	99.871	117.81	192.99	21.341	8.2497	0.019909
52.000	0.71919	514.51	0.0019436	18.943	19.024	82.671	104.35	152.98	668.17	-0.040556	114.52	0.080121	0.0070651	18.484	0.054102	33.971	36.233	135.60	100.22	118.41	192.68	21.238	8.2821	0.020042
53.000	0.73681	513.07	0.0019491	19.094	19.177	83.136	104.61	153.49	662.47	-0.031277	113.36	0.079804	0.0069593	18.941	0.052794	34.046	36.307	135.66	100.57	119.02	192.37	21.138	8.3149	0.020176
54.000	0.75474	511.62	0.0019546	19.245	19.331	83.601	104.86	154.00	656.76	-0.021783	112.22	0.079488	0.0068537	19.409	0.051522	34.121	36.382	135.72	100.92	119.64	192.04	21.041	8.3481	0.020312
55.000	0.77299	510.16	0.0019602	19.397	19.485	84.065	105.12	154.53	651.05	-0.012063	111.08	0.079173	0.0067484	19.886	0.050286	34.196	36.456	135.78	101.26	120.26	191.70	20.946	8.3817	0.020450
56.000	0.79156	508.69	0.0019658	19.550	19.640	84.530	105.37	155.06	645.33	-0.0021116	109.96	0.078860	0.0066434	20.373	0.049084	34.271	36.529	135.84	101.61	120.90	191.35	20.854	8.4156	0.020589
57.000	0.81046	507.21	0.0019716	19.703	19.796	84.994	105.63	155.60	639.60	0.0080817	108.84	0.078549	0.0065386	20.871	0.047914	34.346	36.603	135.90	101.96	121.54	191.00	20.765	8.4499	0.020729
58.000	0.82969	505.72	0.0019774	19.856	19.951	85.459	105.89	156.15	633.87	0.018526	107.74	0.078239	0.0064341	21.378	0.046776	34.420	36.676	135.96	102.31	122.19	190.63	20.678	8.4847	0.020871
59.000	0.84926	504.22	0.0019833	20.010	20.108	85.924	106.15	156.70	628.12	0.029230	106.65	0.077930	0.0063299	21.897	0.045669	34.495	36.749	136.03	102.66	122.85	190.25	20.594	8.5199	0.021015
60.000	0.86916	502.71	0.0019892	20.164	20.265	86.388	106.40	157.27	622.37	0.040206	105.56	0.077623	0.0062260	22.426	0.044592	34.569	36.822	136.09	103.01	123.52	189.86	20.513	8.5555	0.021161
61.000	0.88940	501.19	0.0019953	20.319	20.422	86.853	106.67	157.84	616.61	0.051462	104.49	0.077318	0.0061223	22.966	0.043543	34.644	36.895	136.15	103.36	124.21	189.46	20.435	8.5916	0.021308
62.000	0.90999	499.66	0.0020014	20.474	20.580	87.318	106.93	158.42	610.85	0.063012	103.43	0.077014	0.0060189	23.517	0.042522	34.718	36.967	136.21	103.71	124.90	189.05	20.359	8.6281	0.021457
63.000	0.93092	498.12	0.0020076	20.630	20.739	87.783	107.19	159.01	605.07	0.074866	102.37	0.076711	0.0059158	24.080	0.041528	34.792	37.039	136.27	104.06	125.60	188.63	20.286	8.6652	0.021608
64.000	0.95221	496.56	0.0020138	20.786	20.898	88.248	107.45	159.61	599.28	0.087038	101.33	0.076411	0.0058131	24.655	0.040559	34.866	37.110	136.34	104.41	126.31	188.19	20.216	8.7028	0.021761
65.000	0.97385	495.00	0.0020202	20.943	21.057	88.713	107.72	160.22	593.49	0.099540	100.29	0.076111	0.0057106	25.242	0.039616	34.939	37.182	136.40	104.76	127.04	187.75	20.149	8.7409	0.021915
66.000	0.99586	493.42	0.0020267	21.100	21.217	89.178	107.98	160.85	587.68	0.11239	99.262	0.075813	0.0056084	25.841	0.038698	35.013	37.253	136.46	105.11	127.78	187.30	20.085	8.7796	0.022072
67.000	1.0182	491.83	0.0020332	21.258	21.378	89.644	108.25	161.48	581.87	0.12559	98.242	0.075517	0.0055066	26.453	0.037802	35.086	37.323	136.52	105.46	128.53	186.83	20.023	8.8188	0.022231
68.000	1.0410	490.23	0.0020398	21.416	21.539	90.109	108.51	162.13	576.04	0.13918	97.230	0.075222	0.0054050	27.078	0.036930	35.159	37.394	136.58	105.81	129.30	186.35	19.965	8.8587	0.022392
69.000	1.0641	488.62	0.0020466	21.575	21.701	90.575	108.78	162.78	570.20	0.15315	96.225	0.074929	0.0053038	27.717	0.036079	35.232	37.464	136.64	106.16	130.09	185.86	19.909	8.8991	0.022556
70.000	1.0875	486.99	0.0020534	21.734	21.864	91.041	109.05	163.46	564.35	0.16753	95.228	0.074637	0.0052029	28.369	0.035250	35.305	37.533	136.71	106.51	130.88	185.36	19.857	8.9402	0.022722
71.000	1.1114	485.35	0.0020604	21.894	22.027	91.508	109.32	164.14	558.49	0.18234	94.239	0.074347	0.0051024	29.035	0.034442	35.378	37.602	136.77	106.86	131.70	184.85	19.807	8.9820	0.022890
72.000	1.1356	483.70	0.0020674	22.054	22.191	91.974	109.60	164.84	552.62	0.19760	93.257	0.074058	0.0050022	29.715	0.033653	35.450	37.671	136.83	107.22	132.54	184.32	19.761	9.0244	0.023061
73.000	1.1603	482.03	0.0020746	22.215	22.355	92.441	109.87	165.55	546.73	0.21332	92.281	0.073771	0.0049023	30.410	0.032884	35.522	37.740	136.89	107.57	133.39	183.78	19.717	9.0676	0.023234
74.000	1.1853	480.35	0.0020818	22.377	22.520	92.908	110.14	166.28	540.83	0.22954	91.313	0.073485	0.0048028	31.120	0.032134	35.594	37.807	136.95	107.92	134.27	183.23	19.676	9.1115	0.023410
75.000	1.2107	478.65	0.0020892	22.539	22.686	93.376	110.42	167.02	534.92	0.24627	90.351	0.073201	0.0047037	31.846	0.031402	35.665	37.875	137.00	108.28	135.16	182.67	19.639	9.1562	0.023589
76.000	1.2365	476.94	0.0020967	22.701	22.852	93.844	110.70	167.78	528.99	0.26354	89.395	0.072918	0.0046049	32.587	0.030687	35.736	37.942	137.06	108.64	136.09	182.09	19.604	9.2017	0.023771
77.000	1.2627	475.21	0.0021043	22.864	23.019	94.312	110.97	168.56	523.05	0.28138	88.445	0.072636	0.0045065	33.345	0.029990	35.807	38.008	137.12	109.00	137.03	181.50	19.572	9.2481	0.023956
78.000	1.2893	473.46	0.0021121	23.028	23.187	94.781	111.25	169.35	517.09	0.29981	87.501	0.072357	0.0044085	34.120	0.029309	35.878	38.074	137.18	109.36	138.01	180.90	19.543	9.2953	0.024144
79.000	1.3163	471.70	0.0021200	23.193	23.355	95.250	111.53	170.17	511.12	0.31886	86.563	0.072078	0.0043109	34.912	0.028644	35.948	38.140	137.23	109.73	139.01	180.28	19.517	9.3434	0.024335
80.000	1.3438	469.92	0.0021280	23.358	23.524	95.720	111.82	171.00	505.13	0.33858	85.631	0.071801	0.0042137	35.721	0.027994	36.018	38.204	137.29	110.09	140.04	179.65	19.494	9.3925	0.024530
81.000	1.3716	468.13	0.0021362	23.523	23.694	96.190	112.10	171.86	499.12	0.35898	84.703	0.071526	0.0041169	36.550	0.027360	36.087	38.269	137.35	110.47	141.11	179.01	19.474	9.4426	0.024728
82.000	1.3999	466.31	0.0021445	23.690	23.864	96.661	112.39	172.74	493.10	0.38012	83.781	0.071252	0.0040205	37.397	0.026740	36.157	38.332	137.40	110.84	142.21	178.35	19.457	9.4937	0.024930
83.000	1.4286	464.48	0.0021530	23.857	24.035	97.133	112.67	173.64	487.05	0.40202	82.863	0.070980	0.0039245	38.263	0.026135	36.225	38.395	137.45	111.22	143.34	177.68	19.443	9.5458	0.025136
84.000	1.4578	462.62	0.0021616	24.024	24.207	97.605	112.96	174.57	480.99	0.42474	81.950	0.070709	0.0038289	39.149	0.025543	36.294	38.458	137.51	111.60	144.52	177.00	19.431	9.5991	0.025346
85.000	1.4874	460.75	0.0021704	24.193	24.380	98.077	113.25	175.52	474.91	0.44832	81.041	0.070439	0.0037338	40.057	0.024965	36.361	38.520	137.56	111.99	145.74	176.29	19.422	9.6535	0.025560
86.000	1.5174	458.85	0.0021793	24.362	24.554	98.551	113.55	176.51	468.81	0.47281	80.137	0.070171	0.0036391	40.985	0.024399	36.429	38.581	137.61	112.38	147.00	175.58	19.416	9.7092	0.025779
87.000	1.5478	456.94	0.0021885	24.531	24.728	99.025	113.84	177.52	462.68	0.49826	79.236	0.069904	0.0035449	41.935	0.023846	36.496	38.641	137.66	112.78	148.31	174.85	19.413	9.7661	0.026002
88.000	1.5788	455.00	0.0021978	24.702	24.903	99.500	114.14	178.56	456.54	0.52473	78.339	0.069639	0.0034512	42.909	0.023305	36.562	38.700	137.70	113.18	149.67	174.10	19.413	9.8244	0.026230
89.000	1.6101	453.04	0.0022073	24.873	25.079	99.976	114.43	179.64	450.37	0.55228	77.446	0.069375	0.0033579	43.906	0.022776	36.628	38.759	137.75	113.59	151.09	173.34	19.415	9.8840	0.026463
90.000	1.6420	451.05	0.0022170	25.045	25.256	100.45	114.73	180.76	444.17	0.58098	76.556	0.069113	0.0032651	44.927	0.022258	36.693	38.817	137.79	114.01	152.56	172.56	19.420	9.9451	0.026701
91.000	1.6742	449.04	0.0022270	25.218	25.434	100.93	115.04	181.91	437.95	0.61091	75.669	0.068852	0.0031728	45.973	0.021752	36.758	38.874	137.84	114.43	154.09	171.76	19.427	10.008	0.026945
92.000	1.7070	447.00	0.0022371	25.391	25.613	101.41	115.34	183.10	431.71	0.64213	74.784	0.068593	0.0030811	47.046	0.021256	36.822	38.931	137.88	114.86	155.69	170.95	19.438	10.072	0.027194
93.000	1.7402	444.94	0.0022475	25.565	25.793	101.89	115.65	184.34	425.44	0.67475	73.902	0.068335	0.0029898	48.145	0.020770	36.885	38.986	137.92	115.29	157.36	170.13	19.451	10.138	0.027450
94.000	1.7739	442.85	0.0022581	25.741	25.973	102.37	115.96	185.63	419.14	0.70885	73.023	0.068079	0.0028991	49.273	0.020295	36.948	39.041	137.96	115.73	159.11	169.28	19.467	10.205	0.027712
95.000	1.8081	440.73	0.0022690	25.917	26.155	102.85	116.27	186.96	412.81	0.74454	72.145	0.067824	0.0028089	50.430	0.019829	37.010	39.094	138.00	116.18	160.94	168.42	19.485	10.275	0.027981
96.000	1.8428	438.58	0.0022801	26.093	26.338	103.33	116.59	188.36	406.45	0.78192	71.269	0.067570	0.0027193	51.617	0.019373	37.071	39.146	138.03	116.64	162.85	167.54	19.506	10.346	0.028258
97.000	1.8780	436.39	0.0022915	26.271	26.521	103.82	116.91	189.80	400.05	0.82112	70.395	0.067318	0.0026303	52.836	0.018926	37.132	39.198	138.06	117.10	164.86	166.64	19.530	10.420	0.028541
98.000	1.9137	434.18	0.0023032	26.450	26.706	104.30	117.23	191.32	393.63	0.86227	69.521	0.067068	0.0025418	54.089	0.018488	37.192	39.248	138.10	117.57	166.96	165.72	19.557	10.495	0.028833
99.000	1.9498	431.93	0.0023152	26.630	26.892	104.79	117.55	192.90	387.17	0.90553	68.649	0.066819	0.0024540	55.375	0.018059	37.251	39.297	138.12	118.05	169.18	164.78	19.586	10.573	0.029133
100.00	1.9865	429.64	0.0023275	26.811	27.079	105.28	117.88	194.55	380.67	0.95105	67.777	0.066572	0.0023667	56.697	0.017638	37.309	39.345	138.15	118.54	171.52	163.83	19.618	10.653	0.029442
