Temperature (C)	Pressure (MPa)	Density (l, kg/m3)	Volume (l, m3/kg)	Internal Energy (l, kJ/mol)	Enthalpy (l, kJ/mol)	Entropy (l, J/mol*K)	Cv (l, J/mol*K)	Cp (l, J/mol*K)	Sound Spd. (l, m/s)	Joule-Thomson (l, K/MPa)	Viscosity (l, uPa*s)	Therm. Cond. (l, W/m*K)	Surf. Tension (l, N/m)	Density (v, kg/m3)	Volume (v, m3/kg)	Internal Energy (v, kJ/mol)	Enthalpy (v, kJ/mol)	Entropy (v, J/mol*K)	Cv (v, J/mol*K)	Cp (v, J/mol*K)	Sound Spd. (v, m/s)	Joule-Thomson (v, K/MPa)	Viscosity (v, uPa*s)	Therm. Cond. (v, W/m*K)
-100.00	0.0028994	643.74	0.0015534	-1.0391	-1.0389	-0.36398	59.538	90.565	1544.9	-0.54559	428.63	0.16439	0.023375	0.089039	11.231	18.710	20.146	121.99	43.819	52.230	196.75	80.060	4.7332	0.0069382
-99.000	0.0031555	642.71	0.0015559	-0.94846	-0.94825	0.15783	59.575	90.668	1538.2	-0.54405	421.53	0.16378	0.023246	0.096367	10.377	18.754	20.198	121.58	43.964	52.382	197.24	78.946	4.7604	0.0070105
-98.000	0.0034305	641.67	0.0015584	-0.85775	-0.85751	0.67724	59.613	90.771	1531.5	-0.54248	414.61	0.16317	0.023116	0.10419	9.5982	18.797	20.249	121.18	44.109	52.535	197.73	77.850	4.7877	0.0070830
-97.000	0.0037254	640.63	0.0015610	-0.76693	-0.76667	1.1943	59.652	90.876	1524.9	-0.54089	407.87	0.16256	0.022986	0.11252	8.8870	18.840	20.300	120.79	44.256	52.688	198.22	76.773	4.8149	0.0071558
-96.000	0.0040414	639.59	0.0015635	-0.67601	-0.67573	1.7090	59.692	90.982	1518.2	-0.53928	401.30	0.16194	0.022856	0.12140	8.2370	18.884	20.352	120.41	44.402	52.843	198.70	75.712	4.8422	0.0072289
-95.000	0.0043795	638.55	0.0015661	-0.58498	-0.58468	2.2214	59.734	91.090	1511.5	-0.53766	394.90	0.16133	0.022726	0.13085	7.6422	18.928	20.403	120.03	44.550	52.999	199.18	74.669	4.8694	0.0073023
-94.000	0.0047411	637.51	0.0015686	-0.49384	-0.49352	2.7315	59.776	91.198	1504.8	-0.53601	388.65	0.16071	0.022595	0.14090	7.0974	18.971	20.455	119.66	44.698	53.156	199.66	73.642	4.8966	0.0073759
-93.000	0.0051274	636.46	0.0015712	-0.40260	-0.40224	3.2394	59.820	91.308	1498.1	-0.53434	382.55	0.16010	0.022465	0.15157	6.5978	19.015	20.507	119.30	44.846	53.314	200.13	72.631	4.9238	0.0074498
-92.000	0.0055396	635.42	0.0015738	-0.31124	-0.31086	3.7451	59.866	91.419	1491.4	-0.53264	376.61	0.15948	0.022334	0.16289	6.1391	19.059	20.559	118.95	44.996	53.473	200.60	71.635	4.9509	0.0075239
-91.000	0.0059792	634.37	0.0015764	-0.21978	-0.21936	4.2487	59.912	91.532	1484.7	-0.53093	370.80	0.15887	0.022203	0.17490	5.7177	19.103	20.610	118.60	45.146	53.633	201.06	70.656	4.9781	0.0075983
-90.000	0.0064475	633.32	0.0015790	-0.12820	-0.12775	4.7501	59.960	91.645	1478.0	-0.52919	365.14	0.15825	0.022071	0.18762	5.3300	19.147	20.662	118.26	45.297	53.795	201.53	69.691	5.0052	0.0076730
-89.000	0.0069459	632.27	0.0015816	-0.036509	-0.036025	5.2493	60.009	91.760	1471.3	-0.52744	359.60	0.15764	0.021940	0.20108	4.9731	19.191	20.714	117.93	45.448	53.958	201.98	68.740	5.0323	0.0077480
-88.000	0.0074760	631.22	0.0015842	0.055297	0.055820	5.7465	60.060	91.877	1464.6	-0.52566	354.20	0.15702	0.021808	0.21532	4.6442	19.235	20.766	117.61	45.601	54.122	202.44	67.804	5.0594	0.0078232
-87.000	0.0080392	630.17	0.0015869	0.14722	0.14778	6.2417	60.112	91.995	1458.0	-0.52385	348.93	0.15640	0.021677	0.23037	4.3408	19.280	20.819	117.29	45.754	54.287	202.89	66.882	5.0865	0.0078986
-86.000	0.0086372	629.11	0.0015895	0.23926	0.23987	6.7348	60.165	92.114	1451.3	-0.52203	343.77	0.15579	0.021545	0.24627	4.0606	19.324	20.871	116.97	45.909	54.454	203.34	65.974	5.1136	0.0079744
-85.000	0.0092716	628.06	0.0015922	0.33142	0.33207	7.2259	60.219	92.234	1444.6	-0.52018	338.73	0.15517	0.021413	0.26304	3.8017	19.369	20.923	116.67	46.064	54.623	203.78	65.080	5.1406	0.0080504
-84.000	0.0099440	627.00	0.0015949	0.42370	0.42440	7.7151	60.275	92.357	1437.9	-0.51830	333.81	0.15455	0.021280	0.28072	3.5622	19.413	20.975	116.36	46.220	54.793	204.22	64.199	5.1677	0.0081266
-83.000	0.010656	625.94	0.0015976	0.51610	0.51685	8.2023	60.332	92.480	1431.2	-0.51640	329.00	0.15394	0.021148	0.29936	3.3405	19.458	21.028	116.07	46.377	54.964	204.66	63.332	5.1947	0.0082032
-82.000	0.011410	624.88	0.0016003	0.60862	0.60943	8.6876	60.391	92.605	1424.5	-0.51448	324.29	0.15332	0.021015	0.31897	3.1351	19.503	21.080	115.78	46.535	55.137	205.09	62.477	5.2217	0.0082800
-81.000	0.012207	623.82	0.0016030	0.70127	0.70213	9.1711	60.450	92.732	1417.9	-0.51253	319.69	0.15270	0.020883	0.33961	2.9445	19.548	21.133	115.50	46.693	55.311	205.51	61.636	5.2486	0.0083570
-80.000	0.013049	622.76	0.0016058	0.79405	0.79497	9.6527	60.511	92.860	1411.2	-0.51056	315.19	0.15209	0.020750	0.36132	2.7676	19.593	21.185	115.22	46.853	55.487	205.94	60.807	5.2756	0.0084343
-79.000	0.013939	621.69	0.0016085	0.88695	0.88794	10.132	60.574	92.989	1404.5	-0.50856	310.78	0.15147	0.020617	0.38412	2.6033	19.638	21.238	114.95	47.014	55.665	206.36	59.990	5.3025	0.0085119
-78.000	0.014877	620.62	0.0016113	0.97998	0.98104	10.610	60.638	93.121	1397.8	-0.50653	306.47	0.15085	0.020484	0.40806	2.4506	19.683	21.291	114.68	47.176	55.844	206.77	59.187	5.3294	0.0085897
-77.000	0.015867	619.55	0.0016141	1.0731	1.0743	11.087	60.703	93.253	1391.2	-0.50448	302.25	0.15024	0.020351	0.43319	2.3085	19.728	21.343	114.42	47.339	56.025	207.18	58.395	5.3563	0.0086678
-76.000	0.016909	618.48	0.0016169	1.1664	1.1676	11.561	60.769	93.388	1384.5	-0.50240	298.12	0.14962	0.020218	0.45953	2.1761	19.773	21.396	114.16	47.502	56.207	207.59	57.616	5.3832	0.0087462
-75.000	0.018008	617.41	0.0016197	1.2599	1.2611	12.034	60.837	93.524	1377.8	-0.50029	294.08	0.14901	0.020084	0.48715	2.0528	19.819	21.449	113.91	47.667	56.392	207.99	56.849	5.4100	0.0088248
-74.000	0.019163	616.34	0.0016225	1.3534	1.3548	12.505	60.906	93.662	1371.2	-0.49816	290.12	0.14839	0.019951	0.51606	1.9377	19.864	21.501	113.67	47.833	56.578	208.39	56.094	5.4369	0.0089037
-73.000	0.020378	615.26	0.0016253	1.4471	1.4486	12.974	60.977	93.801	1364.5	-0.49600	286.24	0.14778	0.019817	0.54633	1.8304	19.910	21.554	113.43	48.000	56.766	208.78	55.351	5.4637	0.0089829
-72.000	0.021655	614.18	0.0016282	1.5410	1.5425	13.442	61.049	93.942	1357.9	-0.49380	282.44	0.14717	0.019683	0.57800	1.7301	19.955	21.607	113.19	48.168	56.955	209.17	54.619	5.4905	0.0090623
-71.000	0.022996	613.10	0.0016311	1.6349	1.6366	13.908	61.122	94.085	1351.2	-0.49158	278.72	0.14655	0.019550	0.61110	1.6364	20.001	21.660	112.96	48.337	57.146	209.56	53.899	5.5172	0.0091420
-70.000	0.024404	612.02	0.0016339	1.7291	1.7308	14.372	61.196	94.230	1344.6	-0.48934	275.07	0.14594	0.019416	0.64570	1.5487	20.046	21.713	112.73	48.508	57.340	209.94	53.191	5.5440	0.0092220
-69.000	0.025881	610.93	0.0016368	1.8233	1.8252	14.835	61.272	94.376	1337.9	-0.48706	271.49	0.14533	0.019282	0.68182	1.4667	20.092	21.766	112.51	48.679	57.534	210.31	52.494	5.5707	0.0093022
-68.000	0.027429	609.85	0.0016398	1.9177	1.9197	15.296	61.349	94.524	1331.3	-0.48475	267.99	0.14472	0.019148	0.71953	1.3898	20.138	21.819	112.29	48.851	57.731	210.68	51.808	5.5974	0.0093827
-67.000	0.029051	608.76	0.0016427	2.0123	2.0144	15.756	61.428	94.674	1324.7	-0.48241	264.55	0.14411	0.019014	0.75886	1.3178	20.184	21.872	112.08	49.024	57.930	211.05	51.134	5.6241	0.0094635
-66.000	0.030749	607.67	0.0016456	2.1070	2.1092	16.214	61.507	94.826	1318.0	-0.48004	261.18	0.14350	0.018880	0.79987	1.2502	20.230	21.925	111.87	49.199	58.131	211.41	50.470	5.6508	0.0095446
-65.000	0.032527	606.57	0.0016486	2.2018	2.2042	16.671	61.588	94.980	1311.4	-0.47763	257.87	0.14289	0.018746	0.84261	1.1868	20.276	21.978	111.67	49.374	58.333	211.76	49.818	5.6774	0.0096259
-64.000	0.034386	605.48	0.0016516	2.2968	2.2993	17.127	61.670	95.135	1304.8	-0.47520	254.62	0.14228	0.018611	0.88713	1.1272	20.322	22.031	111.47	49.551	58.537	212.11	49.177	5.7040	0.0097075
-63.000	0.036329	604.38	0.0016546	2.3920	2.3946	17.580	61.754	95.293	1298.2	-0.47273	251.44	0.14167	0.018477	0.93348	1.0713	20.368	22.084	111.27	49.729	58.744	212.46	48.546	5.7307	0.0097894
-62.000	0.038360	603.28	0.0016576	2.4873	2.4901	18.033	61.839	95.452	1291.6	-0.47023	248.32	0.14106	0.018343	0.98170	1.0186	20.414	22.137	111.08	49.907	58.952	212.80	47.926	5.7572	0.0098715
-61.000	0.040480	602.18	0.0016606	2.5828	2.5857	18.484	61.925	95.613	1285.0	-0.46770	245.25	0.14046	0.018209	1.0319	0.96912	20.460	22.190	110.89	50.087	59.162	213.13	47.317	5.7838	0.0099540
-60.000	0.042693	601.08	0.0016637	2.6784	2.6815	18.934	62.012	95.777	1278.4	-0.46513	242.24	0.13985	0.018074	1.0840	0.92250	20.507	22.243	110.71	50.268	59.374	213.46	46.718	5.8104	0.010037
-59.000	0.045002	599.97	0.0016667	2.7742	2.7775	19.382	62.101	95.942	1271.8	-0.46253	239.29	0.13925	0.017940	1.1382	0.87858	20.553	22.297	110.53	50.450	59.588	213.78	46.129	5.8369	0.010120
-58.000	0.047408	598.86	0.0016698	2.8701	2.8736	19.829	62.190	96.109	1265.2	-0.45989	236.38	0.13864	0.017806	1.1945	0.83719	20.600	22.350	110.35	50.633	59.804	214.10	45.551	5.8634	0.010203
-57.000	0.049917	597.75	0.0016729	2.9662	2.9699	20.275	62.281	96.278	1258.6	-0.45722	233.53	0.13804	0.017671	1.2529	0.79814	20.646	22.403	110.18	50.817	60.022	214.42	44.982	5.8899	0.010287
-56.000	0.052529	596.64	0.0016761	3.0625	3.0664	20.719	62.374	96.449	1252.0	-0.45451	230.73	0.13744	0.017537	1.3135	0.76130	20.692	22.456	110.01	51.002	60.242	214.72	44.424	5.9164	0.010371
-55.000	0.055249	595.52	0.0016792	3.1590	3.1630	21.162	62.467	96.622	1245.4	-0.45176	227.98	0.13684	0.017402	1.3764	0.72651	20.739	22.509	109.84	51.188	60.465	215.03	43.875	5.9428	0.010455
-54.000	0.058079	594.40	0.0016824	3.2556	3.2599	21.604	62.562	96.797	1238.8	-0.44897	225.28	0.13624	0.017268	1.4417	0.69364	20.786	22.562	109.68	51.375	60.689	215.32	43.336	5.9693	0.010539
-53.000	0.061023	593.28	0.0016856	3.3524	3.3569	22.045	62.657	96.974	1232.2	-0.44615	222.62	0.13564	0.017133	1.5093	0.66257	20.832	22.615	109.52	51.563	60.915	215.61	42.807	5.9957	0.010624
-52.000	0.064084	592.15	0.0016888	3.4493	3.4541	22.484	62.754	97.153	1225.7	-0.44329	220.01	0.13504	0.016999	1.5793	0.63318	20.879	22.668	109.37	51.752	61.143	215.90	42.287	6.0221	0.010709
-51.000	0.067265	591.03	0.0016920	3.5464	3.5515	22.923	62.852	97.335	1219.1	-0.44039	217.44	0.13444	0.016865	1.6519	0.60538	20.926	22.721	109.22	51.942	61.374	216.18	41.776	6.0485	0.010795
-50.000	0.070568	589.90	0.0016952	3.6438	3.6490	23.360	62.952	97.518	1212.5	-0.43745	214.91	0.13385	0.016730	1.7270	0.57905	20.973	22.774	109.07	52.133	61.606	216.45	41.275	6.0749	0.010880
-49.000	0.073999	588.76	0.0016985	3.7412	3.7468	23.796	63.052	97.704	1206.0	-0.43447	212.43	0.13325	0.016596	1.8047	0.55412	21.019	22.827	108.92	52.326	61.841	216.72	40.783	6.1013	0.010966
-48.000	0.077559	587.63	0.0017018	3.8389	3.8447	24.231	63.154	97.891	1199.4	-0.43145	209.99	0.13266	0.016462	1.8851	0.53048	21.066	22.880	108.78	52.519	62.078	216.98	40.299	6.1276	0.011053
-47.000	0.081252	586.49	0.0017051	3.9368	3.9429	24.664	63.256	98.081	1192.8	-0.42838	207.58	0.13207	0.016327	1.9682	0.50807	21.113	22.933	108.64	52.713	62.316	217.24	39.825	6.1540	0.011140
-46.000	0.085081	585.35	0.0017084	4.0348	4.0412	25.097	63.360	98.273	1186.3	-0.42527	205.22	0.13148	0.016193	2.0542	0.48681	21.160	22.986	108.50	52.908	62.558	217.49	39.359	6.1803	0.011227
-45.000	0.089051	584.20	0.0017117	4.1330	4.1398	25.528	63.465	98.468	1179.7	-0.42212	202.89	0.13089	0.016059	2.1430	0.46663	21.207	23.039	108.37	53.104	62.801	217.73	38.902	6.2067	0.011314
-44.000	0.093164	583.06	0.0017151	4.2314	4.2385	25.959	63.571	98.664	1173.2	-0.41893	200.60	0.13030	0.015925	2.2348	0.44747	21.254	23.092	108.24	53.301	63.046	217.97	38.453	6.2330	0.011402
-43.000	0.097424	581.91	0.0017185	4.3300	4.3374	26.388	63.678	98.863	1166.6	-0.41569	198.35	0.12971	0.015790	2.3296	0.42926	21.301	23.145	108.11	53.499	63.294	218.20	38.012	6.2593	0.011490
-42.000	0.10183	580.75	0.0017219	4.4288	4.4366	26.817	63.786	99.063	1160.1	-0.41240	196.13	0.12913	0.015656	2.4274	0.41196	21.348	23.198	107.98	53.698	63.544	218.42	37.580	6.2856	0.011578
-41.000	0.10640	579.59	0.0017253	4.5278	4.5359	27.244	63.896	99.267	1153.6	-0.40907	193.94	0.12854	0.015522	2.5284	0.39550	21.395	23.251	107.86	53.898	63.796	218.64	37.155	6.3119	0.011667
-40.000	0.11112	578.43	0.0017288	4.6270	4.6355	27.671	64.006	99.472	1147.0	-0.40569	191.79	0.12796	0.015388	2.6326	0.37985	21.442	23.304	107.74	54.099	64.051	218.85	36.739	6.3382	0.011756
-39.000	0.11600	577.27	0.0017323	4.7264	4.7353	28.096	64.118	99.680	1140.5	-0.40226	189.67	0.12738	0.015255	2.7401	0.36495	21.489	23.356	107.62	54.301	64.308	219.06	36.330	6.3645	0.011846
-38.000	0.12105	576.10	0.0017358	4.8260	4.8352	28.520	64.230	99.890	1134.0	-0.39878	187.58	0.12680	0.015121	2.8509	0.35076	21.537	23.409	107.51	54.504	64.567	219.26	35.929	6.3908	0.011936
-37.000	0.12627	574.93	0.0017393	4.9258	4.9354	28.944	64.344	100.10	1127.4	-0.39525	185.53	0.12622	0.014987	2.9652	0.33725	21.584	23.462	107.39	54.708	64.829	219.45	35.535	6.4172	0.012026
-36.000	0.13166	573.76	0.0017429	5.0257	5.0359	29.367	64.459	100.32	1120.9	-0.39167	183.50	0.12564	0.014853	3.0829	0.32437	21.631	23.514	107.28	54.913	65.093	219.63	35.149	6.4435	0.012117
-35.000	0.13723	572.58	0.0017465	5.1259	5.1365	29.788	64.575	100.53	1114.4	-0.38804	181.50	0.12506	0.014720	3.2042	0.31209	21.678	23.567	107.18	55.118	65.360	219.81	34.770	6.4698	0.012208
-34.000	0.14297	571.40	0.0017501	5.2263	5.2374	30.209	64.692	100.75	1107.8	-0.38435	179.53	0.12449	0.014586	3.3292	0.30037	21.726	23.619	107.07	55.325	65.629	219.98	34.398	6.4961	0.012300
-33.000	0.14890	570.22	0.0017537	5.3270	5.3385	30.629	64.810	100.98	1101.3	-0.38062	177.59	0.12392	0.014453	3.4578	0.28920	21.773	23.672	106.97	55.532	65.901	220.15	34.033	6.5224	0.012392
-32.000	0.15502	569.03	0.0017574	5.4278	5.4398	31.048	64.929	101.20	1094.8	-0.37682	175.68	0.12335	0.014320	3.5903	0.27853	21.820	23.724	106.87	55.741	66.175	220.31	33.676	6.5488	0.012484
-31.000	0.16133	567.84	0.0017611	5.5288	5.5413	31.466	65.049	101.43	1088.3	-0.37297	173.79	0.12278	0.014186	3.7266	0.26834	21.867	23.776	106.77	55.950	66.452	220.46	33.324	6.5751	0.012577
-30.000	0.16783	566.64	0.0017648	5.6301	5.6431	31.884	65.170	101.66	1081.7	-0.36906	171.93	0.12221	0.014053	3.8669	0.25861	21.915	23.829	106.67	56.161	66.732	220.60	32.980	6.6015	0.012670
-29.000	0.17454	565.44	0.0017685	5.7315	5.7452	32.300	65.293	101.89	1075.2	-0.36510	170.10	0.12164	0.013920	4.0112	0.24930	21.962	23.881	106.58	56.372	67.014	220.74	32.642	6.6279	0.012764
-28.000	0.18144	564.23	0.0017723	5.8332	5.8474	32.716	65.416	102.12	1068.7	-0.36107	168.29	0.12108	0.013787	4.1596	0.24041	22.009	23.933	106.49	56.584	67.299	220.87	32.311	6.6543	0.012859
-27.000	0.18856	563.03	0.0017761	5.9352	5.9499	33.131	65.540	102.36	1062.2	-0.35698	166.50	0.12052	0.013655	4.3122	0.23190	22.057	23.985	106.40	56.798	67.587	220.99	31.986	6.6807	0.012953
-26.000	0.19589	561.81	0.0017799	6.0373	6.0527	33.545	65.666	102.60	1055.6	-0.35283	164.74	0.11996	0.013522	4.4690	0.22376	22.104	24.037	106.31	57.012	67.878	221.10	31.667	6.7072	0.013049
-25.000	0.20343	560.60	0.0017838	6.1397	6.1557	33.959	65.793	102.85	1049.1	-0.34862	163.00	0.11940	0.013390	4.6302	0.21597	22.151	24.089	106.23	57.227	68.171	221.21	31.354	6.7337	0.013144
-24.000	0.21119	559.38	0.0017877	6.2423	6.2589	34.372	65.920	103.09	1042.6	-0.34434	161.29	0.11884	0.013257	4.7959	0.20851	22.199	24.140	106.14	57.443	68.468	221.31	31.047	6.7602	0.013241
-23.000	0.21918	558.15	0.0017916	6.3451	6.3624	34.784	66.049	103.34	1036.1	-0.33999	159.60	0.11828	0.013125	4.9661	0.20137	22.246	24.192	106.06	57.660	68.767	221.40	30.746	6.7867	0.013337
-22.000	0.22739	556.92	0.0017956	6.4482	6.4662	35.195	66.179	103.59	1029.5	-0.33558	157.92	0.11773	0.012993	5.1409	0.19452	22.293	24.244	105.98	57.878	69.070	221.49	30.451	6.8133	0.013435
-21.000	0.23584	555.69	0.0017996	6.5515	6.5702	35.606	66.310	103.84	1023.0	-0.33109	156.27	0.11717	0.012861	5.3203	0.18796	22.341	24.295	105.90	58.098	69.375	221.57	30.162	6.8399	0.013532
-20.000	0.24452	554.45	0.0018036	6.6550	6.6744	36.016	66.442	104.10	1016.5	-0.32654	154.64	0.11662	0.012729	5.5046	0.18167	22.388	24.347	105.82	58.318	69.684	221.64	29.878	6.8665	0.013631
-19.000	0.25344	553.21	0.0018076	6.7588	6.7790	36.425	66.575	104.36	1010.0	-0.32191	153.04	0.11607	0.012598	5.6938	0.17563	22.435	24.398	105.75	58.539	69.997	221.70	29.600	6.8932	0.013730
-18.000	0.26261	551.96	0.0018117	6.8628	6.8838	36.834	66.709	104.62	1003.4	-0.31720	151.45	0.11553	0.012466	5.8879	0.16984	22.482	24.449	105.68	58.761	70.312	221.75	29.327	6.9199	0.013830
-17.000	0.27203	550.71	0.0018158	6.9671	6.9888	37.242	66.844	104.89	996.89	-0.31242	149.88	0.11498	0.012335	6.0872	0.16428	22.530	24.500	105.61	58.984	70.631	221.80	29.060	6.9467	0.013930
-16.000	0.28170	549.45	0.0018200	7.0716	7.0942	37.649	66.981	105.16	990.36	-0.30757	148.33	0.11444	0.012204	6.2916	0.15894	22.577	24.551	105.54	59.208	70.954	221.84	28.798	6.9736	0.014031
-15.000	0.29162	548.19	0.0018242	7.1763	7.1998	38.056	67.118	105.43	983.82	-0.30263	146.79	0.11389	0.012073	6.5012	0.15382	22.624	24.602	105.47	59.433	71.280	221.87	28.541	7.0004	0.014132
-14.000	0.30181	546.92	0.0018284	7.2814	7.3057	38.462	67.257	105.71	977.28	-0.29761	145.28	0.11335	0.011942	6.7162	0.14889	22.671	24.653	105.40	59.659	71.610	221.89	28.289	7.0274	0.014234
-13.000	0.31227	545.65	0.0018327	7.3866	7.4119	38.868	67.396	105.99	970.74	-0.29250	143.78	0.11281	0.011811	6.9367	0.14416	22.718	24.703	105.34	59.886	71.943	221.90	28.041	7.0544	0.014337
-12.000	0.32300	544.37	0.0018370	7.4922	7.5183	39.273	67.537	106.27	964.20	-0.28731	142.31	0.11228	0.011681	7.1628	0.13961	22.766	24.754	105.27	60.115	72.281	221.91	27.799	7.0815	0.014440
-11.000	0.33400	543.09	0.0018413	7.5979	7.6251	39.677	67.679	106.55	957.66	-0.28203	140.84	0.11174	0.011551	7.3945	0.13523	22.813	24.804	105.21	60.344	72.622	221.90	27.562	7.1086	0.014545
-10.000	0.34528	541.80	0.0018457	7.7040	7.7321	40.081	67.822	106.84	951.11	-0.27666	139.40	0.11121	0.011421	7.6321	0.13103	22.860	24.855	105.15	60.574	72.967	221.89	27.329	7.1359	0.014650
-9.0000	0.35684	540.50	0.0018501	7.8103	7.8394	40.485	67.966	107.13	944.56	-0.27120	137.97	0.11068	0.011291	7.8755	0.12698	22.907	24.905	105.09	60.806	73.317	221.87	27.101	7.1632	0.014755
-8.0000	0.36870	539.20	0.0018546	7.9169	7.9470	40.888	68.111	107.43	938.01	-0.26564	136.56	0.11015	0.011161	8.1249	0.12308	22.954	24.955	105.03	61.039	73.671	221.84	26.878	7.1906	0.014862
-7.0000	0.38085	537.90	0.0018591	8.0238	8.0550	41.290	68.257	107.73	931.45	-0.25998	135.16	0.10962	0.011032	8.3804	0.11933	23.001	25.005	104.97	61.272	74.029	221.81	26.658	7.2180	0.014969
-6.0000	0.39329	536.59	0.0018636	8.1309	8.1632	41.692	68.404	108.03	924.89	-0.25422	133.78	0.10909	0.010902	8.6422	0.11571	23.048	25.054	104.92	61.507	74.391	221.76	26.444	7.2456	0.015077
-5.0000	0.40604	535.27	0.0018682	8.2383	8.2717	42.094	68.552	108.34	918.33	-0.24836	132.42	0.10857	0.010773	8.9103	0.11223	23.094	25.104	104.87	61.744	74.759	221.70	26.233	7.2733	0.015185
-4.0000	0.41909	533.95	0.0018728	8.3460	8.3806	42.495	68.702	108.65	911.77	-0.24239	131.06	0.10804	0.010644	9.1849	0.10887	23.141	25.153	104.81	61.981	75.131	221.64	26.027	7.3010	0.015295
-3.0000	0.43245	532.62	0.0018775	8.4539	8.4897	42.896	68.852	108.97	905.20	-0.23631	129.73	0.10752	0.010516	9.4661	0.10564	23.188	25.202	104.76	62.220	75.508	221.57	25.825	7.3289	0.015405
-2.0000	0.44613	531.28	0.0018822	8.5622	8.5992	43.296	69.004	109.29	898.63	-0.23012	128.41	0.10700	0.010388	9.7540	0.10252	23.235	25.251	104.71	62.459	75.890	221.49	25.628	7.3569	0.015517
-1.0000	0.46013	529.94	0.0018870	8.6707	8.7090	43.696	69.157	109.61	892.05	-0.22381	127.10	0.10649	0.010259	10.049	0.099514	23.281	25.300	104.66	62.700	76.277	221.40	25.434	7.3850	0.015629
0.0000	0.47446	528.59	0.0018918	8.7795	8.8191	44.096	69.311	109.94	885.47	-0.21738	125.80	0.10597	0.010131	10.351	0.096613	23.328	25.349	104.61	62.943	76.670	221.30	25.244	7.4132	0.015742
1.0000	0.48911	527.24	0.0018967	8.8887	8.9296	44.495	69.465	110.27	878.89	-0.21083	124.52	0.10546	0.010004	10.659	0.093814	23.374	25.398	104.56	63.186	77.068	221.19	25.058	7.4416	0.015856
2.0000	0.50410	525.88	0.0019016	8.9981	9.0404	44.894	69.621	110.61	872.30	-0.20415	123.25	0.10495	0.0098764	10.975	0.091112	23.421	25.446	104.52	63.431	77.472	221.07	24.876	7.4701	0.015971
3.0000	0.51943	524.51	0.0019065	9.1078	9.1515	45.292	69.778	110.95	865.71	-0.19735	122.00	0.10444	0.0097492	11.299	0.088504	23.467	25.494	104.47	63.678	77.881	220.94	24.698	7.4988	0.016088
4.0000	0.53510	523.13	0.0019116	9.2178	9.2629	45.690	69.937	111.29	859.11	-0.19040	120.75	0.10393	0.0096223	11.630	0.085985	23.513	25.542	104.43	63.925	78.297	220.80	24.523	7.5276	0.016205
5.0000	0.55112	521.75	0.0019166	9.3281	9.3747	46.088	70.096	111.64	852.51	-0.18332	119.52	0.10343	0.0094956	11.969	0.083552	23.559	25.590	104.38	64.174	78.719	220.65	24.352	7.5565	0.016323
6.0000	0.56749	520.36	0.0019217	9.4388	9.4869	46.485	70.256	112.00	845.91	-0.17610	118.30	0.10292	0.0093692	12.315	0.081201	23.605	25.637	104.34	64.425	79.147	220.50	24.185	7.5856	0.016442
7.0000	0.58422	518.96	0.0019269	9.5497	9.5994	46.883	70.418	112.36	839.30	-0.16873	117.10	0.10242	0.0092431	12.670	0.078929	23.651	25.685	104.30	64.677	79.582	220.33	24.021	7.6149	0.016563
8.0000	0.60131	517.56	0.0019321	9.6610	9.7122	47.280	70.580	112.72	832.69	-0.16121	115.90	0.10192	0.0091173	13.032	0.076732	23.697	25.732	104.26	64.930	80.023	220.15	23.860	7.6444	0.016684
9.0000	0.61877	516.15	0.0019374	9.7726	9.8254	47.676	70.744	113.09	826.07	-0.15353	114.72	0.10142	0.0089917	13.403	0.074609	23.743	25.779	104.22	65.185	80.472	219.97	23.703	7.6740	0.016807
10.000	0.63660	514.73	0.0019428	9.8845	9.9390	48.073	70.908	113.47	819.44	-0.14569	113.55	0.10093	0.0088664	13.783	0.072555	23.789	25.826	104.18	65.441	80.928	219.77	23.550	7.7039	0.016931
11.000	0.65481	513.30	0.0019482	9.9967	10.053	48.469	71.074	113.85	812.81	-0.13768	112.38	0.10043	0.0087413	14.171	0.070568	23.834	25.872	104.14	65.699	81.392	219.56	23.399	7.7339	0.017056
12.000	0.67340	511.86	0.0019536	10.109	10.167	48.865	71.241	114.24	806.17	-0.12950	111.23	0.099940	0.0086166	14.568	0.068646	23.880	25.918	104.10	65.959	81.863	219.34	23.252	7.7642	0.017183
13.000	0.69238	510.42	0.0019592	10.222	10.282	49.261	71.409	114.63	799.53	-0.12114	110.09	0.099450	0.0084922	14.973	0.066785	23.925	25.964	104.07	66.220	82.342	219.12	23.108	7.7946	0.017310
14.000	0.71175	508.97	0.0019648	10.335	10.397	49.656	71.578	115.03	792.88	-0.11259	108.96	0.098962	0.0083680	15.388	0.064984	23.970	26.010	104.03	66.482	82.830	218.88	22.967	7.8254	0.017439
15.000	0.73151	507.50	0.0019704	10.449	10.513	50.052	71.748	115.44	786.23	-0.10385	107.84	0.098476	0.0082442	15.813	0.063240	24.016	26.055	103.99	66.747	83.327	218.63	22.829	7.8563	0.017570
16.000	0.75168	506.03	0.0019762	10.563	10.628	50.447	71.919	115.85	779.57	-0.094916	106.73	0.097991	0.0081207	16.247	0.061551	24.061	26.101	103.96	67.013	83.832	218.37	22.695	7.8875	0.017702
17.000	0.77225	504.55	0.0019820	10.677	10.745	50.843	72.092	116.27	772.90	-0.085776	105.63	0.097509	0.0079975	16.691	0.059914	24.105	26.146	103.92	67.281	84.346	218.10	22.563	7.9189	0.017835
18.000	0.79324	503.06	0.0019878	10.792	10.861	51.238	72.265	116.69	766.23	-0.076422	104.54	0.097028	0.0078746	17.144	0.058329	24.150	26.190	103.89	67.550	84.871	217.82	22.434	7.9507	0.017970
19.000	0.81464	501.57	0.0019938	10.907	10.979	51.633	72.440	117.13	759.55	-0.066849	103.46	0.096550	0.0077520	17.608	0.056792	24.195	26.235	103.85	67.821	85.405	217.52	22.308	7.9827	0.018107
20.000	0.83646	500.06	0.0019998	11.022	11.096	52.028	72.615	117.57	752.86	-0.057047	102.39	0.096073	0.0076297	18.082	0.055303	24.239	26.279	103.82	68.095	85.949	217.22	22.185	8.0150	0.018245
21.000	0.85871	498.54	0.0020059	11.138	11.214	52.423	72.792	118.02	746.16	-0.047008	101.32	0.095598	0.0075078	18.567	0.053858	24.283	26.323	103.79	68.369	86.504	216.90	22.065	8.0476	0.018385
22.000	0.88139	497.01	0.0020120	11.254	11.332	52.817	72.970	118.47	739.45	-0.036723	100.27	0.095125	0.0073863	19.063	0.052458	24.327	26.366	103.75	68.646	87.070	216.58	21.948	8.0805	0.018526
23.000	0.90451	495.47	0.0020183	11.371	11.451	53.212	73.149	118.94	732.74	-0.026183	99.224	0.094654	0.0072650	19.570	0.051099	24.371	26.409	103.72	68.925	87.648	216.24	21.833	8.1137	0.018670
24.000	0.92807	493.92	0.0020246	11.487	11.570	53.607	73.330	119.41	726.02	-0.015377	98.187	0.094185	0.0071441	20.088	0.049781	24.415	26.452	103.69	69.206	88.238	215.89	21.721	8.1473	0.018815
25.000	0.95207	492.36	0.0020310	11.605	11.690	54.002	73.511	119.89	719.28	-0.0042962	97.157	0.093718	0.0070236	20.618	0.048502	24.458	26.494	103.66	69.488	88.840	215.53	21.612	8.1813	0.018962
26.000	0.97653	490.79	0.0020375	11.722	11.810	54.397	73.694	120.38	712.54	0.0070715	96.136	0.093252	0.0069035	21.160	0.047260	24.502	26.537	103.62	69.773	89.455	215.15	21.505	8.2156	0.019111
27.000	1.0014	489.21	0.0020441	11.840	11.931	54.792	73.877	120.88	705.79	0.018737	95.123	0.092789	0.0067837	21.713	0.046055	24.545	26.578	103.59	70.059	90.084	214.76	21.401	8.2503	0.019262
28.000	1.0268	487.62	0.0020508	11.959	12.052	55.187	74.062	121.39	699.03	0.030713	94.118	0.092327	0.0066642	22.280	0.044884	24.588	26.620	103.56	70.348	90.727	214.37	21.299	8.2854	0.019415
29.000	1.0527	486.01	0.0020576	12.078	12.173	55.582	74.248	121.91	692.26	0.043012	93.120	0.091867	0.0065452	22.859	0.043747	24.630	26.661	103.53	70.639	91.384	213.96	21.200	8.3210	0.019570
30.000	1.0790	484.39	0.0020644	12.197	12.295	55.977	74.436	122.44	685.48	0.055648	92.129	0.091409	0.0064265	23.451	0.042643	24.673	26.702	103.50	70.932	92.057	213.53	21.104	8.3569	0.019727
31.000	1.1058	482.76	0.0020714	12.317	12.418	56.373	74.625	122.98	678.68	0.068635	91.146	0.090953	0.0063082	24.056	0.041569	24.715	26.742	103.47	71.227	92.746	213.10	21.010	8.3934	0.019886
32.000	1.1331	481.12	0.0020785	12.437	12.541	56.768	74.815	123.53	671.88	0.081988	90.170	0.090498	0.0061903	24.675	0.040527	24.757	26.782	103.44	71.524	93.451	212.65	20.918	8.4303	0.020048
33.000	1.1608	479.46	0.0020857	12.558	12.664	57.164	75.006	124.10	665.06	0.095723	89.201	0.090046	0.0060728	25.308	0.039513	24.798	26.821	103.41	71.824	94.174	212.19	20.829	8.4677	0.020213
34.000	1.1891	477.79	0.0020930	12.679	12.788	57.560	75.198	124.68	658.23	0.10986	88.239	0.089595	0.0059557	25.956	0.038527	24.840	26.860	103.37	72.126	94.915	211.71	20.742	8.5056	0.020379
35.000	1.2179	476.10	0.0021004	12.800	12.913	57.956	75.392	125.27	651.39	0.12441	87.283	0.089145	0.0058391	26.618	0.037568	24.881	26.899	103.34	72.430	95.676	211.22	20.658	8.5440	0.020549
36.000	1.2472	474.41	0.0021079	12.922	13.038	58.353	75.587	125.87	644.53	0.13940	86.334	0.088698	0.0057228	27.295	0.036636	24.922	26.937	103.31	72.737	96.456	210.72	20.576	8.5830	0.020721
37.000	1.2769	472.69	0.0021155	13.045	13.164	58.749	75.784	126.49	637.66	0.15484	85.392	0.088252	0.0056070	27.988	0.035729	24.962	26.974	103.28	73.046	97.257	210.20	20.496	8.6226	0.020896
38.000	1.3072	470.96	0.0021233	13.167	13.290	59.146	75.982	127.12	630.78	0.17076	84.455	0.087808	0.0054916	28.697	0.034847	25.003	27.011	103.25	73.358	98.081	209.68	20.418	8.6628	0.021074
39.000	1.3381	469.22	0.0021312	13.291	13.417	59.544	76.181	127.77	623.88	0.18718	83.524	0.087366	0.0053766	29.423	0.033988	25.043	27.048	103.21	73.672	98.927	209.13	20.343	8.7036	0.021254
40.000	1.3694	467.46	0.0021392	13.415	13.544	59.942	76.382	128.44	616.96	0.20413	82.600	0.086925	0.0052621	30.165	0.033151	25.082	27.084	103.18	73.989	99.798	208.57	20.270	8.7450	0.021438
41.000	1.4013	465.68	0.0021474	13.539	13.672	60.340	76.585	129.12	610.03	0.22163	81.681	0.086486	0.0051481	30.924	0.032337	25.122	27.120	103.15	74.309	100.69	208.00	20.200	8.7872	0.021625
42.000	1.4337	463.89	0.0021557	13.664	13.800	60.738	76.789	129.82	603.08	0.23970	80.767	0.086048	0.0050345	31.701	0.031544	25.160	27.155	103.11	74.631	101.62	207.42	20.131	8.8301	0.021816
43.000	1.4667	462.08	0.0021641	13.789	13.929	61.137	76.994	130.54	596.12	0.25839	79.859	0.085612	0.0049214	32.497	0.030772	25.199	27.189	103.08	74.957	102.57	206.81	20.065	8.8737	0.022010
44.000	1.5002	460.25	0.0021727	13.915	14.059	61.537	77.202	131.29	589.13	0.27771	78.956	0.085178	0.0048087	33.312	0.030020	25.237	27.223	103.04	75.285	103.55	206.20	20.001	8.9181	0.022207
45.000	1.5343	458.40	0.0021815	14.042	14.190	61.937	77.411	132.05	582.13	0.29771	78.059	0.084745	0.0046966	34.146	0.029286	25.275	27.256	103.01	75.616	104.57	205.56	19.939	8.9633	0.022409
46.000	1.5690	456.54	0.0021904	14.169	14.321	62.338	77.621	132.83	575.10	0.31841	77.166	0.084314	0.0045849	35.000	0.028572	25.312	27.289	102.97	75.950	105.61	204.92	19.879	9.0094	0.022614
47.000	1.6042	454.65	0.0021995	14.297	14.452	62.739	77.834	133.64	568.06	0.33986	76.278	0.083883	0.0044737	35.874	0.027875	25.349	27.321	102.93	76.288	106.70	204.25	19.821	9.0563	0.022824
48.000	1.6400	452.75	0.0022087	14.425	14.585	63.141	78.048	134.47	561.00	0.36210	75.394	0.083455	0.0043631	36.771	0.027196	25.385	27.352	102.90	76.628	107.82	203.57	19.766	9.1042	0.023038
49.000	1.6763	450.82	0.0022182	14.554	14.718	63.544	78.264	135.34	553.91	0.38518	74.515	0.083028	0.0042529	37.689	0.026533	25.421	27.383	102.86	76.972	108.98	202.88	19.712	9.1531	0.023256
50.000	1.7133	448.87	0.0022278	14.683	14.851	63.947	78.483	136.22	546.80	0.40913	73.640	0.082602	0.0041433	38.630	0.025887	25.457	27.412	102.82	77.318	110.18	202.17	19.661	9.2029	0.023479
51.000	1.7509	446.90	0.0022377	14.813	14.986	64.351	78.703	137.14	539.66	0.43402	72.769	0.082177	0.0040342	39.594	0.025256	25.492	27.442	102.78	77.668	111.43	201.44	19.612	9.2539	0.023707
52.000	1.7890	444.90	0.0022477	14.944	15.121	64.757	78.925	138.09	532.51	0.45989	71.902	0.081754	0.0039257	40.583	0.024641	25.526	27.470	102.73	78.021	112.73	200.69	19.565	9.3060	0.023940
53.000	1.8278	442.88	0.0022579	15.075	15.257	65.162	79.150	139.08	525.32	0.48682	71.038	0.081332	0.0038177	41.598	0.024040	25.560	27.497	102.69	78.377	114.07	199.93	19.520	9.3592	0.024179
54.000	1.8672	440.83	0.0022684	15.207	15.394	65.569	79.377	140.10	518.11	0.51486	70.178	0.080911	0.0037103	42.638	0.023453	25.593	27.524	102.65	78.736	115.47	199.14	19.478	9.4137	0.024423
55.000	1.9072	438.76	0.0022791	15.340	15.532	65.977	79.607	141.16	510.87	0.54408	69.321	0.080491	0.0036035	43.706	0.022880	25.626	27.550	102.60	79.098	116.94	198.35	19.437	9.4694	0.024674
56.000	1.9478	436.66	0.0022901	15.474	15.670	66.386	79.839	142.27	503.61	0.57456	68.468	0.080072	0.0034973	44.802	0.022320	25.657	27.575	102.55	79.463	118.46	197.53	19.400	9.5266	0.024930
57.000	1.9891	434.54	0.0023013	15.608	15.810	66.796	80.073	143.42	496.31	0.60638	67.617	0.079654	0.0033916	45.928	0.021773	25.689	27.598	102.50	79.832	120.05	196.69	19.364	9.5852	0.025194
58.000	2.0310	432.38	0.0023128	15.743	15.950	67.207	80.311	144.61	488.98	0.63965	66.769	0.079238	0.0032866	47.084	0.021239	25.719	27.621	102.45	80.203	121.72	195.84	19.331	9.6452	0.025464
59.000	2.0735	430.19	0.0023245	15.878	16.091	67.620	80.551	145.86	481.61	0.67444	65.923	0.078822	0.0031822	48.272	0.020716	25.749	27.643	102.40	80.577	123.46	194.97	19.300	9.7069	0.025743
60.000	2.1167	427.97	0.0023366	16.015	16.233	68.034	80.794	147.17	474.22	0.71088	65.079	0.078407	0.0030785	49.493	0.020205	25.778	27.664	102.34	80.956	125.30	194.07	19.272	9.7703	0.026029
61.000	2.1606	425.72	0.0023490	16.152	16.376	68.449	81.041	148.53	466.78	0.74908	64.237	0.077993	0.0029754	50.749	0.019705	25.806	27.683	102.29	81.338	127.22	193.16	19.245	9.8354	0.026324
62.000	2.2052	423.43	0.0023617	16.291	16.520	68.866	81.291	149.97	459.31	0.78917	63.397	0.077579	0.0028730	52.041	0.019216	25.833	27.702	102.23	81.724	129.26	192.23	19.222	9.9024	0.026627
63.000	2.2504	421.11	0.0023747	16.430	16.666	69.285	81.545	151.47	451.80	0.83131	62.559	0.077167	0.0027712	53.371	0.018737	25.859	27.719	102.17	82.116	131.40	191.28	19.200	9.9714	0.026941
64.000	2.2963	418.74	0.0023881	16.570	16.812	69.705	81.802	153.06	444.25	0.87564	61.721	0.076755	0.0026702	54.740	0.018268	25.885	27.735	102.10	82.514	133.68	190.31	19.181	10.043	0.027265
65.000	2.3429	416.34	0.0024019	16.711	16.959	70.127	82.063	154.73	436.65	0.92234	60.884	0.076343	0.0025699	56.152	0.017809	25.909	27.749	102.03	82.919	136.09	189.32	19.163	10.116	0.027600
66.000	2.3903	413.89	0.0024161	16.853	17.108	70.551	82.329	156.49	429.00	0.97161	60.047	0.075932	0.0024703	57.607	0.017359	25.932	27.762	101.96	83.331	138.66	188.31	19.148	10.192	0.027947
67.000	2.4383	411.40	0.0024307	16.996	17.258	70.977	82.599	158.36	421.31	1.0237	59.210	0.075522	0.0023714	59.109	0.016918	25.954	27.773	101.89	83.753	141.40	187.28	19.134	10.270	0.028307
68.000	2.4871	408.86	0.0024458	17.141	17.409	71.405	82.874	160.34	413.56	1.0788	58.373	0.075112	0.0022734	60.659	0.016486	25.975	27.783	101.81	84.185	144.33	186.23	19.121	10.351	0.028681
69.000	2.5365	406.27	0.0024614	17.286	17.562	71.836	83.154	162.45	405.75	1.1372	57.536	0.074703	0.0021761	62.260	0.016062	25.994	27.791	101.73	84.629	147.48	185.15	19.109	10.435	0.029070
70.000	2.5868	403.62	0.0024776	17.433	17.715	72.270	83.441	164.69	397.89	1.1992	56.696	0.074294	0.0020797	63.916	0.015645	26.012	27.797	101.65	85.087	150.87	184.05	19.098	10.522	0.029476
71.000	2.6377	400.92	0.0024943	17.581	17.871	72.706	83.733	167.10	389.96	1.2651	55.856	0.073885	0.0019841	65.630	0.015237	26.028	27.801	101.56	85.559	154.52	182.93	19.088	10.612	0.029900
72.000	2.6895	398.16	0.0025115	17.730	18.028	73.145	84.033	169.68	381.97	1.3354	55.013	0.073477	0.0018893	67.405	0.014836	26.043	27.803	101.47	86.047	158.48	181.78	19.077	10.706	0.030344
73.000	2.7420	395.34	0.0025295	17.881	18.187	73.587	84.341	172.46	373.90	1.4105	54.167	0.073069	0.0017955	69.245	0.014441	26.056	27.803	101.37	86.553	162.78	180.60	19.067	10.804	0.030809
74.000	2.7952	392.44	0.0025482	18.033	18.347	74.033	84.657	175.46	365.75	1.4908	53.317	0.072662	0.0017025	71.155	0.014054	26.068	27.800	101.26	87.078	167.47	179.40	19.055	10.906	0.031298
75.000	2.8493	389.47	0.0025676	18.187	18.510	74.483	84.983	178.71	357.52	1.5770	52.463	0.072256	0.0016106	73.140	0.013672	26.077	27.795	101.15	87.624	172.59	178.18	19.043	11.013	0.031813
76.000	2.9042	386.42	0.0025878	18.343	18.674	74.936	85.320	182.26	349.20	1.6698	51.605	0.071851	0.0015196	75.205	0.013297	26.084	27.787	101.04	88.192	178.22	176.92	19.029	11.124	0.032358
77.000	2.9598	383.29	0.0026090	18.500	18.841	75.394	85.670	186.14	340.79	1.7698	50.740	0.071446	0.0014296	77.356	0.012927	26.089	27.776	100.91	88.783	184.42	175.64	19.013	11.241	0.032935
78.000	3.0163	380.06	0.0026312	18.659	19.009	75.857	86.034	190.41	332.27	1.8779	49.868	0.071044	0.0013407	79.601	0.012563	26.092	27.762	100.78	89.398	191.30	174.32	18.994	11.364	0.033549
79.000	3.0737	376.73	0.0026544	18.821	19.181	76.325	86.415	195.13	323.64	1.9953	48.989	0.070644	0.0012529	81.948	0.012203	26.091	27.745	100.65	90.040	198.96	172.97	18.973	11.494	0.034203
80.000	3.1319	373.29	0.0026789	18.985	19.355	76.799	86.814	200.39	314.89	2.1231	48.100	0.070246	0.0011663	84.406	0.011847	26.088	27.724	100.50	90.709	207.54	171.59	18.947	11.630	0.034905
81.000	3.1909	369.73	0.0027047	19.151	19.532	77.280	87.235	206.29	306.02	2.2627	47.200	0.069854	0.0010809	86.986	0.011496	26.082	27.699	100.34	91.408	217.23	170.18	18.917	11.775	0.035659
82.000	3.2509	366.03	0.0027320	19.320	19.712	77.768	87.680	212.96	297.01	2.4159	46.288	0.069467	0.00099672	89.701	0.011148	26.072	27.670	100.17	92.138	228.24	168.73	18.881	11.929	0.036473
83.000	3.3117	362.18	0.0027610	19.492	19.896	78.264	88.155	220.56	287.86	2.5847	45.361	0.069088	0.00091389	92.565	0.010803	26.057	27.635	99.995	92.903	240.86	167.24	18.838	12.093	0.037359
84.000	3.3734	358.17	0.0027920	19.668	20.083	78.769	88.663	229.33	278.54	2.7717	44.418	0.068720	0.00083246	95.597	0.010461	26.039	27.595	99.801	93.706	255.48	165.71	18.787	12.268	0.038326
85.000	3.4361	353.96	0.0028252	19.847	20.275	79.284	89.212	239.56	269.05	2.9800	43.455	0.068368	0.00075252	98.818	0.010120	26.015	27.549	99.592	94.550	272.62	164.14	18.727	12.457	0.039391
86.000	3.4997	349.54	0.0028609	20.031	20.472	79.811	89.807	251.67	259.37	3.2134	42.468	0.068039	0.00067417	102.25	0.0097795	25.986	27.495	99.365	95.442	292.98	162.53	18.654	12.662	0.040573
87.000	3.5643	344.86	0.0028997	20.220	20.675	80.353	90.460	266.25	249.49	3.4768	41.455	0.067741	0.00059752	105.94	0.0094392	25.950	27.434	99.118	96.388	317.57	160.87	18.566	12.884	0.041896
88.000	3.6299	339.90	0.0029421	20.414	20.885	80.910	91.182	284.17	239.37	3.7764	40.408	0.067490	0.00052270	109.92	0.0090976	25.906	27.363	98.846	97.399	347.88	159.15	18.460	13.128	0.043396
89.000	3.6965	334.58	0.0029888	20.615	21.102	81.487	91.991	306.76	229.00	4.1204	39.321	0.067308	0.00044986	114.24	0.0087531	25.853	27.280	98.546	98.487	386.15	157.38	18.331	13.398	0.045121
90.000	3.7641	328.83	0.0030411	20.825	21.329	82.089	92.909	336.15	218.34	4.5198	38.184	0.067233	0.00037921	119.00	0.0084037	25.789	27.184	98.210	99.670	436.00	155.53	18.172	13.701	0.047139
91.000	3.8328	322.55	0.0031003	21.044	21.568	82.720	93.971	376.05	207.34	4.9897	36.984	0.067324	0.00031098	124.28	0.0080465	25.710	27.070	97.830	100.98	503.59	153.60	17.975	14.046	0.049558
92.000	3.9027	315.58	0.0031688	21.278	21.823	83.392	95.230	433.37	195.94	5.5517	35.702	0.067689	0.00024551	130.25	0.0076773	25.614	26.935	97.391	102.44	600.40	151.55	17.726	14.448	0.052550
93.000	3.9737	307.65	0.0032505	21.529	22.099	84.119	96.771	522.83	184.04	6.2382	34.312	0.068522	0.00018322	137.18	0.0072896	25.492	26.769	96.874	104.14	750.40	149.36	17.405	14.933	0.056429
94.000	4.0459	298.29	0.0033524	21.808	22.406	84.929	98.754	681.85	171.52	7.1016	32.776	0.070220	0.00012477	145.53	0.0068715	25.333	26.558	96.238	106.18	1013.3	146.93	16.979	15.555	0.061838
95.000	4.1195	286.51	0.0034903	22.134	22.768	85.882	101.53	1040.4	158.09	8.2385	31.058	0.073791	7.1213e-05	156.31	0.0063976	25.110	26.273	95.402	108.80	1590.3	144.07	16.378	16.462	0.070437
96.000	4.1945	269.03	0.0037170	22.570	23.258	87.179	106.19	2518.7	143.16	9.8843	29.178	0.083992	2.4773e-05	172.78	0.0057877	24.744	25.814	94.103	112.69	3824.2	140.09	15.402	18.266	0.089487
