Temperature (C)	Pressure (MPa)	Density (l, kg/m3)	Volume (l, m3/kg)	Internal Energy (l, kJ/mol)	Enthalpy (l, kJ/mol)	Entropy (l, J/mol*K)	Cv (l, J/mol*K)	Cp (l, J/mol*K)	Sound Spd. (l, m/s)	Joule-Thomson (l, K/MPa)	Viscosity (l, uPa*s)	Therm. Cond. (l, W/m*K)	Surf. Tension (l, N/m)	Density (v, kg/m3)	Volume (v, m3/kg)	Internal Energy (v, kJ/mol)	Enthalpy (v, kJ/mol)	Entropy (v, J/mol*K)	Cv (v, J/mol*K)	Cp (v, J/mol*K)	Sound Spd. (v, m/s)	Joule-Thomson (v, K/MPa)	Viscosity (v, uPa*s)	Therm. Cond. (v, W/m*K)
-100.00	0.00055940	1582.4	0.00063195	7.6893	7.6894	44.425	80.728	120.83	1103.2	-0.37926	1882.4	0.14324	0.026835	0.039694	25.193	32.932	34.370	198.51	52.108	60.527	127.87	318.13	6.9606	0.0033445
-99.000	0.00062222	1579.7	0.00063301	7.8102	7.8102	45.121	80.711	120.86	1098.1	-0.37853	1812.1	0.14263	0.026669	0.043901	22.778	32.983	34.429	197.97	52.347	60.772	128.19	303.55	7.0003	0.0034246
-98.000	0.00069109	1577.1	0.00063407	7.9310	7.9311	45.813	80.701	120.89	1093.0	-0.37777	1746.3	0.14203	0.026504	0.048487	20.624	33.035	34.489	197.44	52.585	61.017	128.51	289.87	7.0399	0.0035048
-97.000	0.00076650	1574.5	0.00063514	8.0520	8.0520	46.501	80.697	120.93	1087.9	-0.37698	1684.6	0.14143	0.026339	0.053477	18.699	33.086	34.549	196.92	52.824	61.262	128.83	277.04	7.0796	0.0035849
-96.000	0.00084895	1571.8	0.00063621	8.1729	8.1730	47.186	80.699	120.97	1082.8	-0.37616	1626.6	0.14083	0.026174	0.058902	16.977	33.138	34.609	196.41	53.063	61.508	129.15	264.98	7.1192	0.0036650
-95.000	0.00093899	1569.1	0.00063729	8.2939	8.2940	47.867	80.706	121.02	1077.7	-0.37532	1572.0	0.14023	0.026009	0.064790	15.435	33.190	34.669	195.92	53.301	61.753	129.47	253.65	7.1588	0.0037452
-94.000	0.0010372	1566.5	0.00063837	8.4149	8.4150	48.544	80.718	121.08	1072.6	-0.37446	1520.6	0.13964	0.025844	0.071174	14.050	33.242	34.729	195.43	53.540	61.999	129.79	242.99	7.1983	0.0038253
-93.000	0.0011441	1563.8	0.00063945	8.5360	8.5361	49.218	80.735	121.13	1067.6	-0.37356	1472.0	0.13905	0.025680	0.078087	12.806	33.295	34.790	194.95	53.778	62.245	130.10	232.97	7.2379	0.0039055
-92.000	0.0012605	1561.2	0.00064054	8.6572	8.6573	49.889	80.756	121.20	1062.5	-0.37265	1426.0	0.13846	0.025516	0.085563	11.687	33.347	34.850	194.48	54.016	62.491	130.41	223.53	7.2774	0.0039856
-91.000	0.0013869	1558.5	0.00064164	8.7784	8.7785	50.557	80.782	121.26	1057.4	-0.37170	1382.4	0.13787	0.025352	0.093640	10.679	33.400	34.911	194.03	54.254	62.738	130.73	214.64	7.3168	0.0040658
-90.000	0.0015241	1555.8	0.00064274	8.8997	8.8998	51.221	80.812	121.34	1052.3	-0.37074	1341.0	0.13728	0.025188	0.10236	9.7698	33.453	34.972	193.58	54.492	62.984	131.03	206.26	7.3562	0.0041459
-89.000	0.0016728	1553.2	0.00064384	9.0211	9.0212	51.882	80.846	121.41	1047.2	-0.36975	1301.7	0.13670	0.025025	0.11175	8.9485	33.506	35.034	193.14	54.729	63.231	131.34	198.35	7.3956	0.0042261
-88.000	0.0018338	1550.5	0.00064495	9.1425	9.1427	52.539	80.884	121.49	1042.2	-0.36874	1264.3	0.13612	0.024861	0.12186	8.2059	33.560	35.095	192.71	54.967	63.478	131.65	190.89	7.4350	0.0043063
-87.000	0.0020079	1547.8	0.00064607	9.2641	9.2642	53.194	80.925	121.57	1037.1	-0.36771	1228.7	0.13554	0.024698	0.13274	7.5334	33.613	35.157	192.29	55.204	63.726	131.95	183.84	7.4743	0.0043865
-86.000	0.0021960	1545.1	0.00064719	9.3857	9.3858	53.845	80.970	121.66	1032.0	-0.36665	1194.8	0.13497	0.024536	0.14443	6.9239	33.667	35.218	191.88	55.442	63.974	132.26	177.18	7.5136	0.0044667
-85.000	0.0023990	1542.5	0.00064831	9.5074	9.5075	54.494	81.018	121.75	1027.0	-0.36557	1162.4	0.13439	0.024373	0.15697	6.3707	33.721	35.280	191.47	55.679	64.222	132.56	170.88	7.5528	0.0045469
-84.000	0.0026178	1539.8	0.00064944	9.6292	9.6294	55.140	81.069	121.84	1021.9	-0.36447	1131.4	0.13382	0.024210	0.17042	5.8680	33.775	35.342	191.08	55.916	64.470	132.86	164.92	7.5920	0.0046271
-83.000	0.0028535	1537.1	0.00065058	9.7511	9.7513	55.782	81.123	121.94	1016.9	-0.36335	1101.8	0.13325	0.024048	0.18482	5.4107	33.829	35.404	190.69	56.153	64.719	133.16	159.28	7.6312	0.0047073
-82.000	0.0031070	1534.4	0.00065172	9.8731	9.8733	56.422	81.179	122.04	1011.9	-0.36221	1073.5	0.13269	0.023886	0.20023	4.9943	33.883	35.466	190.31	56.391	64.969	133.45	153.93	7.6703	0.0047875
-81.000	0.0033794	1531.7	0.00065286	9.9951	9.9954	57.059	81.239	122.14	1006.8	-0.36105	1046.3	0.13212	0.023724	0.21670	4.6147	33.938	35.529	189.94	56.628	65.219	133.75	148.86	7.7094	0.0048677
-80.000	0.0036719	1529.0	0.00065401	10.117	10.118	57.693	81.301	122.24	1001.8	-0.35986	1020.3	0.13156	0.023563	0.23429	4.2682	33.992	35.591	189.58	56.865	65.469	134.04	144.05	7.7484	0.0049479
-79.000	0.0039856	1526.3	0.00065517	10.240	10.240	58.325	81.365	122.35	996.80	-0.35866	995.30	0.13100	0.023401	0.25306	3.9516	34.047	35.654	189.22	57.102	65.720	134.33	139.49	7.7874	0.0050282
-78.000	0.0043217	1523.6	0.00065633	10.362	10.362	58.954	81.432	122.46	991.79	-0.35743	971.30	0.13044	0.023240	0.27307	3.6621	34.102	35.717	188.88	57.339	65.971	134.62	135.15	7.8264	0.0051084
-77.000	0.0046816	1520.9	0.00065750	10.485	10.485	59.580	81.501	122.57	986.79	-0.35618	948.24	0.12988	0.023079	0.29438	3.3970	34.157	35.780	188.54	57.576	66.223	134.90	131.03	7.8653	0.0051887
-76.000	0.0050665	1518.2	0.00065867	10.607	10.607	60.203	81.572	122.69	981.80	-0.35492	926.07	0.12933	0.022918	0.31705	3.1540	34.212	35.843	188.20	57.813	66.476	135.19	127.11	7.9042	0.0052690
-75.000	0.0054777	1515.5	0.00065985	10.730	10.730	60.824	81.644	122.80	976.81	-0.35363	904.73	0.12877	0.022758	0.34116	2.9312	34.268	35.906	187.88	58.050	66.730	135.47	123.38	7.9430	0.0053493
-74.000	0.0059168	1512.8	0.00066104	10.853	10.853	61.443	81.719	122.92	971.83	-0.35232	884.18	0.12822	0.022598	0.36677	2.7265	34.323	35.969	187.56	58.288	66.984	135.75	119.83	7.9818	0.0054296
-73.000	0.0063851	1510.1	0.00066223	10.976	10.976	62.059	81.796	123.04	966.86	-0.35099	864.38	0.12767	0.022437	0.39395	2.5384	34.379	36.033	187.25	58.525	67.239	136.03	116.44	8.0205	0.0055099
-72.000	0.0068843	1507.3	0.00066342	11.099	11.099	62.672	81.874	123.17	961.90	-0.34964	845.29	0.12713	0.022278	0.42278	2.3653	34.435	36.096	186.94	58.763	67.495	136.30	113.21	8.0592	0.0055902
-71.000	0.0074158	1504.6	0.00066462	11.222	11.222	63.283	81.954	123.29	956.95	-0.34827	826.88	0.12658	0.022118	0.45333	2.2059	34.491	36.160	186.64	59.000	67.751	136.57	110.13	8.0978	0.0056705
-70.000	0.0079814	1501.9	0.00066583	11.345	11.346	63.892	82.036	123.42	952.00	-0.34688	809.10	0.12604	0.021959	0.48568	2.0590	34.547	36.224	186.35	59.238	68.009	136.84	107.19	8.1364	0.0057509
-69.000	0.0085826	1499.1	0.00066705	11.469	11.469	64.498	82.119	123.55	947.06	-0.34547	791.94	0.12550	0.021799	0.51991	1.9234	34.603	36.287	186.07	59.476	68.267	137.11	104.38	8.1749	0.0058313
-68.000	0.0092213	1496.4	0.00066827	11.592	11.593	65.102	82.204	123.68	942.13	-0.34404	775.35	0.12496	0.021640	0.55610	1.7982	34.659	36.351	185.79	59.714	68.527	137.38	101.70	8.2134	0.0059116
-67.000	0.0098992	1493.7	0.00066950	11.716	11.717	65.704	82.290	123.81	937.21	-0.34258	759.31	0.12442	0.021482	0.59433	1.6826	34.716	36.415	185.51	59.953	68.787	137.64	99.131	8.2519	0.0059920
-66.000	0.010618	1490.9	0.00067073	11.840	11.841	66.303	82.377	123.95	932.29	-0.34111	743.80	0.12389	0.021323	0.63470	1.5756	34.772	36.479	185.24	60.192	69.049	137.90	96.672	8.2902	0.0060725
-65.000	0.011380	1488.2	0.00067197	11.964	11.965	66.900	82.466	124.08	927.39	-0.33961	728.79	0.12335	0.021165	0.67728	1.4765	34.829	36.543	184.98	60.431	69.312	138.16	94.317	8.3286	0.0061529
-64.000	0.012187	1485.4	0.00067322	12.088	12.089	67.495	82.555	124.22	922.49	-0.33809	714.26	0.12282	0.021007	0.72218	1.3847	34.886	36.608	184.73	60.670	69.576	138.42	92.060	8.3668	0.0062334
-63.000	0.013041	1482.6	0.00067447	12.212	12.213	68.088	82.646	124.36	917.60	-0.33655	700.19	0.12229	0.020849	0.76947	1.2996	34.943	36.672	184.47	60.910	69.841	138.67	89.896	8.4051	0.0063139
-62.000	0.013944	1479.9	0.00067573	12.337	12.338	68.678	82.738	124.50	912.72	-0.33498	686.55	0.12177	0.020691	0.81927	1.2206	35.000	36.736	184.23	61.150	70.108	138.92	87.819	8.4432	0.0063944
-61.000	0.014899	1477.1	0.00067700	12.461	12.462	69.267	82.831	124.64	907.84	-0.33339	673.33	0.12124	0.020534	0.87167	1.1472	35.057	36.801	183.99	61.391	70.376	139.17	85.825	8.4814	0.0064749
-60.000	0.015906	1474.3	0.00067827	12.586	12.587	69.853	82.926	124.79	902.98	-0.33178	660.51	0.12072	0.020377	0.92676	1.0790	35.114	36.865	183.75	61.632	70.646	139.41	83.909	8.5194	0.0065554
-59.000	0.016970	1471.6	0.00067955	12.711	12.712	70.438	83.021	124.93	898.12	-0.33015	648.07	0.12019	0.020220	0.98465	1.0156	35.171	36.930	183.53	61.873	70.916	139.65	82.067	8.5574	0.0066360
-58.000	0.018091	1468.8	0.00068084	12.836	12.837	71.020	83.117	125.08	893.27	-0.32849	635.99	0.11967	0.020063	1.0454	0.95654	35.229	36.994	183.30	62.115	71.189	139.89	80.295	8.5954	0.0067166
-57.000	0.019273	1466.0	0.00068214	12.961	12.962	71.600	83.214	125.23	888.43	-0.32681	624.27	0.11915	0.019907	1.1092	0.90152	35.286	37.059	183.08	62.358	71.463	140.13	78.590	8.6333	0.0067972
-56.000	0.020518	1463.2	0.00068344	13.086	13.088	72.178	83.312	125.38	883.59	-0.32511	612.88	0.11864	0.019751	1.1762	0.85022	35.344	37.124	182.87	62.601	71.739	140.36	76.947	8.6711	0.0068779
-55.000	0.021828	1460.4	0.00068475	13.212	13.213	72.754	83.410	125.54	878.76	-0.32337	601.82	0.11812	0.019595	1.2463	0.80236	35.401	37.188	182.66	62.844	72.016	140.59	75.365	8.7089	0.0069586
-54.000	0.023206	1457.6	0.00068607	13.337	13.339	73.329	83.510	125.69	873.94	-0.32162	591.06	0.11761	0.019439	1.3198	0.75768	35.459	37.253	182.45	63.088	72.296	140.82	73.839	8.7466	0.0070393
-53.000	0.024654	1454.8	0.00068739	13.463	13.465	73.901	83.610	125.84	869.13	-0.31984	580.60	0.11710	0.019284	1.3968	0.71593	35.517	37.318	182.25	63.333	72.577	141.04	72.366	8.7843	0.0071201
-52.000	0.026176	1452.0	0.00068873	13.589	13.591	74.472	83.711	126.00	864.33	-0.31803	570.43	0.11659	0.019128	1.4773	0.67690	35.575	37.383	182.05	63.579	72.860	141.26	70.945	8.8219	0.0072009
-51.000	0.027774	1449.1	0.00069007	13.715	13.717	75.040	83.813	126.16	859.53	-0.31620	560.53	0.11608	0.018973	1.5616	0.64038	35.633	37.447	181.86	63.825	73.144	141.48	69.572	8.8595	0.0072817
-50.000	0.029450	1446.3	0.00069142	13.841	13.843	75.607	83.916	126.32	854.74	-0.31434	550.89	0.11557	0.018819	1.6496	0.60620	35.691	37.512	181.68	64.072	73.431	141.69	68.246	8.8970	0.0073625
-49.000	0.031209	1443.5	0.00069277	13.967	13.970	76.172	84.019	126.48	849.96	-0.31245	541.51	0.11506	0.018664	1.7416	0.57417	35.749	37.577	181.49	64.319	73.720	141.90	66.963	8.9344	0.0074434
-48.000	0.033051	1440.6	0.00069414	14.094	14.096	76.735	84.123	126.65	845.18	-0.31053	532.37	0.11456	0.018510	1.8377	0.54415	35.807	37.642	181.31	64.567	74.011	142.11	65.722	8.9718	0.0075244
-47.000	0.034982	1437.8	0.00069551	14.220	14.223	77.296	84.227	126.81	840.41	-0.30859	523.46	0.11406	0.018356	1.9380	0.51599	35.865	37.707	181.14	64.817	74.305	142.31	64.521	9.0092	0.0076054
-46.000	0.037003	1434.9	0.00069689	14.347	14.350	77.856	84.333	126.98	835.65	-0.30661	514.79	0.11356	0.018202	2.0427	0.48955	35.923	37.772	180.97	65.066	74.600	142.51	63.358	9.0464	0.0076864
-45.000	0.039117	1432.1	0.00069828	14.474	14.477	78.414	84.438	127.15	830.89	-0.30461	506.33	0.11306	0.018049	2.1518	0.46473	35.982	37.836	180.80	65.317	74.898	142.70	62.231	9.0837	0.0077675
-44.000	0.041329	1429.2	0.00069968	14.601	14.604	78.970	84.545	127.32	826.14	-0.30258	498.08	0.11256	0.017896	2.2655	0.44140	36.040	37.901	180.64	65.569	75.198	142.90	61.138	9.1209	0.0078486
-43.000	0.043640	1426.4	0.00070109	14.729	14.732	79.524	84.652	127.49	821.40	-0.30051	490.03	0.11207	0.017743	2.3840	0.41946	36.098	37.966	180.48	65.821	75.500	143.09	60.079	9.1580	0.0079298
-42.000	0.046055	1423.5	0.00070251	14.856	14.860	80.077	84.759	127.66	816.66	-0.29842	482.17	0.11157	0.017590	2.5074	0.39881	36.157	38.031	180.32	66.074	75.805	143.27	59.051	9.1950	0.0080110
-41.000	0.048577	1420.6	0.00070393	14.984	14.987	80.628	84.867	127.84	811.93	-0.29629	474.51	0.11108	0.017437	2.6359	0.37938	36.215	38.096	180.17	66.329	76.112	143.45	58.053	9.2321	0.0080923
-40.000	0.051209	1417.7	0.00070537	15.112	15.115	81.178	84.976	128.01	807.21	-0.29413	467.03	0.11059	0.017285	2.7695	0.36108	36.274	38.160	180.02	66.584	76.422	143.63	57.084	9.2690	0.0081736
-39.000	0.053954	1414.8	0.00070681	15.240	15.244	81.726	85.085	128.19	802.49	-0.29193	459.72	0.11010	0.017133	2.9085	0.34382	36.332	38.225	179.87	66.840	76.735	143.80	56.142	9.3059	0.0082550
-38.000	0.056817	1411.9	0.00070826	15.368	15.372	82.272	85.195	128.37	797.77	-0.28971	452.58	0.10961	0.016982	3.0529	0.32755	36.391	38.290	179.73	67.097	77.050	143.97	55.227	9.3428	0.0083364
-37.000	0.059801	1409.0	0.00070973	15.496	15.501	82.817	85.305	128.55	793.07	-0.28744	445.61	0.10913	0.016830	3.2031	0.31220	36.449	38.354	179.59	67.355	77.368	144.14	54.338	9.3796	0.0084179
-36.000	0.062908	1406.1	0.00071120	15.625	15.629	83.360	85.416	128.74	788.36	-0.28514	438.80	0.10864	0.016679	3.3590	0.29771	36.508	38.419	179.46	67.614	77.689	144.30	53.472	9.4164	0.0084995
-35.000	0.066144	1403.1	0.00071268	15.754	15.758	83.901	85.527	128.92	783.67	-0.28281	432.13	0.10816	0.016528	3.5209	0.28402	36.566	38.483	179.32	67.873	78.012	144.45	52.630	9.4531	0.0085812
-34.000	0.069512	1400.2	0.00071418	15.882	15.887	84.441	85.639	129.11	778.98	-0.28044	425.62	0.10768	0.016378	3.6890	0.27108	36.625	38.548	179.19	68.134	78.338	144.61	51.810	9.4898	0.0086629
-33.000	0.073015	1397.3	0.00071568	16.011	16.017	84.980	85.751	129.30	774.29	-0.27803	419.25	0.10720	0.016227	3.8633	0.25885	36.684	38.612	179.07	68.396	78.668	144.76	51.011	9.5264	0.0087447
-32.000	0.076658	1394.3	0.00071719	16.141	16.146	85.517	85.863	129.49	769.61	-0.27558	413.02	0.10672	0.016077	4.0441	0.24727	36.742	38.676	178.94	68.659	79.000	144.90	50.233	9.5630	0.0088266
-31.000	0.080444	1391.4	0.00071872	16.270	16.276	86.053	85.976	129.68	764.94	-0.27309	406.92	0.10624	0.015927	4.2316	0.23632	36.801	38.740	178.82	68.923	79.335	145.04	49.475	9.5996	0.0089085
-30.000	0.084378	1388.4	0.00072025	16.400	16.406	86.587	86.090	129.87	760.26	-0.27056	400.95	0.10576	0.015778	4.4259	0.22594	36.859	38.805	178.71	69.188	79.673	145.18	48.737	9.6361	0.0089906
-29.000	0.088463	1385.4	0.00072180	16.530	16.536	87.120	86.204	130.07	755.60	-0.26798	395.11	0.10529	0.015629	4.6271	0.21612	36.918	38.869	178.59	69.454	80.015	145.31	48.016	9.6726	0.0090727
-28.000	0.092703	1382.4	0.00072336	16.660	16.666	87.651	86.318	130.27	750.94	-0.26537	389.39	0.10482	0.015480	4.8356	0.20680	36.977	38.933	178.48	69.721	80.359	145.43	47.313	9.7090	0.0091549
-27.000	0.097103	1379.5	0.00072492	16.790	16.797	88.181	86.433	130.47	746.28	-0.26271	383.79	0.10434	0.015331	5.0514	0.19796	37.035	38.997	178.37	69.989	80.707	145.56	46.628	9.7454	0.0092372
-26.000	0.10167	1376.5	0.00072650	16.920	16.928	88.710	86.548	130.67	741.63	-0.26001	378.30	0.10387	0.015182	5.2748	0.18958	37.094	39.060	178.26	70.258	81.058	145.67	45.959	9.7818	0.0093196
-25.000	0.10640	1373.4	0.00072809	17.051	17.059	89.237	86.664	130.88	736.98	-0.25726	372.92	0.10340	0.015034	5.5059	0.18162	37.152	39.124	178.16	70.529	81.413	145.79	45.305	9.8181	0.0094022
-24.000	0.11130	1370.4	0.00072970	17.181	17.190	89.763	86.780	131.08	732.33	-0.25446	367.65	0.10293	0.014886	5.7450	0.17407	37.211	39.188	178.06	70.800	81.771	145.90	44.668	9.8545	0.0094848
-23.000	0.11639	1367.4	0.00073131	17.312	17.321	90.288	86.896	131.29	727.69	-0.25161	362.49	0.10246	0.014739	5.9922	0.16688	37.269	39.251	177.96	71.072	82.132	146.00	44.045	9.8907	0.0095675
-22.000	0.12165	1364.4	0.00073294	17.444	17.453	90.811	87.013	131.50	723.05	-0.24872	357.42	0.10200	0.014592	6.2477	0.16006	37.328	39.315	177.86	71.346	82.497	146.10	43.436	9.9270	0.0096504
-21.000	0.12710	1361.3	0.00073458	17.575	17.584	91.333	87.131	131.72	718.42	-0.24577	352.46	0.10153	0.014445	6.5117	0.15357	37.386	39.378	177.76	71.620	82.865	146.19	42.842	9.9633	0.0097333
-20.000	0.13273	1358.3	0.00073623	17.706	17.716	91.854	87.248	131.93	713.79	-0.24277	347.58	0.10107	0.014298	6.7845	0.14739	37.445	39.441	177.67	71.896	83.237	146.28	42.261	9.9995	0.0098164
-19.000	0.13857	1355.2	0.00073790	17.838	17.849	92.373	87.367	132.15	709.16	-0.23972	342.81	0.10061	0.014151	7.0662	0.14152	37.503	39.504	177.58	72.172	83.613	146.36	41.693	10.036	0.0098996
-18.000	0.14460	1352.1	0.00073958	17.970	17.981	92.892	87.485	132.37	704.53	-0.23662	338.12	0.10014	0.014005	7.3571	0.13592	37.561	39.567	177.49	72.450	83.992	146.44	41.138	10.072	0.0099830
-17.000	0.15084	1349.0	0.00074127	18.102	18.114	93.409	87.604	132.59	699.91	-0.23346	333.52	0.099684	0.013859	7.6574	0.13059	37.620	39.629	177.41	72.729	84.376	146.52	40.595	10.108	0.010067
-16.000	0.15728	1345.9	0.00074297	18.235	18.247	93.925	87.724	132.82	695.29	-0.23024	329.00	0.099225	0.013714	7.9673	0.12551	37.678	39.692	177.32	73.009	84.763	146.58	40.064	10.144	0.010150
-15.000	0.16394	1342.8	0.00074469	18.367	18.380	94.440	87.844	133.05	690.68	-0.22696	324.56	0.098767	0.013569	8.2870	0.12067	37.736	39.755	177.24	73.289	85.154	146.65	39.544	10.181	0.010234
-14.000	0.17082	1339.7	0.00074643	18.500	18.513	94.953	87.964	133.28	686.06	-0.22362	320.21	0.098310	0.013424	8.6168	0.11605	37.794	39.817	177.16	73.571	85.549	146.71	39.036	10.217	0.010318
-13.000	0.17792	1336.6	0.00074818	18.633	18.647	95.466	88.085	133.51	681.45	-0.22021	315.93	0.097854	0.013279	8.9568	0.11165	37.852	39.879	177.08	73.854	85.948	146.76	38.539	10.253	0.010402
-12.000	0.18524	1333.4	0.00074994	18.766	18.781	95.977	88.206	133.75	676.84	-0.21675	311.73	0.097398	0.013135	9.3074	0.10744	37.910	39.941	177.00	74.138	86.352	146.81	38.053	10.289	0.010486
-11.000	0.19280	1330.3	0.00075172	18.900	18.915	96.487	88.328	133.99	672.23	-0.21322	307.61	0.096944	0.012991	9.6688	0.10343	37.968	40.003	176.93	74.424	86.759	146.85	37.576	10.325	0.010571
-10.000	0.20060	1327.1	0.00075351	19.034	19.049	96.996	88.450	134.23	667.63	-0.20962	303.55	0.096491	0.012847	10.041	0.099590	38.026	40.064	176.86	74.710	87.171	146.89	37.110	10.362	0.010655
-9.0000	0.20864	1323.9	0.00075532	19.168	19.184	97.505	88.572	134.47	663.03	-0.20595	299.56	0.096039	0.012704	10.425	0.095925	38.084	40.126	176.79	74.997	87.587	146.92	36.654	10.398	0.010740
-8.0000	0.21693	1320.8	0.00075714	19.302	19.318	98.012	88.695	134.72	658.42	-0.20221	295.65	0.095588	0.012561	10.820	0.092422	38.141	40.187	176.72	75.285	88.008	146.94	36.207	10.434	0.010825
-7.0000	0.22548	1317.6	0.00075898	19.436	19.454	98.518	88.819	134.97	653.82	-0.19839	291.79	0.095138	0.012418	11.227	0.089072	38.199	40.248	176.65	75.574	88.433	146.96	35.770	10.471	0.010911
-6.0000	0.23428	1314.3	0.00076084	19.571	19.589	99.023	88.943	135.23	649.22	-0.19450	288.00	0.094689	0.012275	11.646	0.085867	38.257	40.309	176.58	75.865	88.863	146.98	35.342	10.507	0.010996
-5.0000	0.24334	1311.1	0.00076271	19.706	19.724	99.527	89.067	135.49	644.63	-0.19054	284.28	0.094241	0.012133	12.077	0.082801	38.314	40.370	176.52	76.156	89.298	146.99	34.923	10.543	0.011082
-4.0000	0.25268	1307.9	0.00076460	19.841	19.860	100.03	89.192	135.75	640.03	-0.18649	280.61	0.093794	0.011991	12.521	0.079866	38.371	40.430	176.46	76.448	89.737	146.99	34.512	10.580	0.011168
-3.0000	0.26228	1304.6	0.00076650	19.976	19.996	100.53	89.317	136.01	635.43	-0.18236	277.01	0.093347	0.011850	12.978	0.077055	38.429	40.491	176.39	76.742	90.182	146.98	34.110	10.616	0.011254
-2.0000	0.27217	1301.4	0.00076843	20.111	20.133	101.03	89.443	136.28	630.84	-0.17815	273.46	0.092902	0.011709	13.448	0.074362	38.486	40.551	176.33	77.036	90.631	146.98	33.716	10.653	0.011340
-1.0000	0.28234	1298.1	0.00077037	20.247	20.269	101.53	89.569	136.55	626.24	-0.17385	269.96	0.092457	0.011568	13.931	0.071782	38.543	40.611	176.28	77.332	91.086	146.96	33.330	10.689	0.011427
0.0000	0.29280	1294.8	0.00077233	20.383	20.406	102.03	89.695	136.83	621.65	-0.16946	266.53	0.092013	0.011427	14.428	0.069309	38.600	40.670	176.22	77.628	91.546	146.94	32.952	10.726	0.011514
1.0000	0.30356	1291.5	0.00077431	20.520	20.544	102.53	89.822	137.11	617.05	-0.16498	263.14	0.091570	0.011287	14.939	0.066937	38.656	40.730	176.16	77.926	92.012	146.91	32.581	10.763	0.011601
2.0000	0.31462	1288.1	0.00077631	20.656	20.681	103.03	89.950	137.39	612.46	-0.16040	259.81	0.091128	0.011147	15.465	0.064663	38.713	40.789	176.11	78.224	92.483	146.88	32.219	10.800	0.011689
3.0000	0.32598	1284.8	0.00077833	20.793	20.819	103.52	90.078	137.68	607.86	-0.15572	256.53	0.090687	0.011008	16.005	0.062480	38.770	40.848	176.05	78.524	92.959	146.84	31.863	10.837	0.011777
4.0000	0.33766	1281.4	0.00078037	20.930	20.957	104.02	90.207	137.97	603.27	-0.15095	253.29	0.090246	0.010869	16.560	0.060385	38.826	40.907	176.00	78.824	93.442	146.79	31.515	10.874	0.011865
5.0000	0.34966	1278.1	0.00078243	21.067	21.095	104.51	90.336	138.27	598.68	-0.14607	250.11	0.089806	0.010730	17.131	0.058374	38.882	40.965	175.95	79.125	93.930	146.74	31.174	10.911	0.011954
6.0000	0.36198	1274.7	0.00078451	21.205	21.234	105.01	90.465	138.57	594.08	-0.14108	246.97	0.089367	0.010592	17.717	0.056443	38.939	41.023	175.90	79.428	94.425	146.68	30.840	10.948	0.012043
7.0000	0.37463	1271.3	0.00078661	21.343	21.373	105.50	90.596	138.88	589.48	-0.13598	243.88	0.088929	0.010454	18.319	0.054587	38.995	41.081	175.85	79.732	94.925	146.62	30.512	10.986	0.012132
8.0000	0.38761	1267.9	0.00078873	21.481	21.512	105.99	90.726	139.19	584.89	-0.13076	240.83	0.088491	0.010316	18.938	0.052804	39.051	41.139	175.80	80.036	95.433	146.55	30.191	11.023	0.012221
9.0000	0.40094	1264.4	0.00079088	21.619	21.652	106.49	90.857	139.50	580.29	-0.12543	237.83	0.088054	0.010178	19.573	0.051090	39.106	41.196	175.76	80.342	95.947	146.47	29.877	11.061	0.012312
10.000	0.41461	1261.0	0.00079305	21.758	21.792	106.98	90.989	139.82	575.69	-0.11998	234.87	0.087618	0.010041	20.226	0.049442	39.162	41.253	175.71	80.648	96.467	146.38	29.569	11.099	0.012402
11.000	0.42863	1257.5	0.00079524	21.897	21.932	107.47	91.122	140.15	571.09	-0.11440	231.95	0.087182	0.0099047	20.896	0.047857	39.217	41.310	175.67	80.956	96.995	146.29	29.267	11.137	0.012493
12.000	0.44301	1254.0	0.00079745	22.036	22.072	107.96	91.255	140.48	566.49	-0.10869	229.07	0.086747	0.0097684	21.584	0.046332	39.272	41.367	175.62	81.264	97.530	146.19	28.971	11.175	0.012584
13.000	0.45776	1250.5	0.00079969	22.176	22.213	108.45	91.388	140.81	561.89	-0.10285	226.22	0.086312	0.0096325	22.290	0.044864	39.328	41.423	175.58	81.574	98.072	146.09	28.682	11.214	0.012676
14.000	0.47288	1246.9	0.00080196	22.316	22.355	108.93	91.522	141.16	557.28	-0.096867	223.42	0.085878	0.0094969	23.015	0.043451	39.382	41.479	175.54	81.885	98.623	145.97	28.398	11.252	0.012769
15.000	0.48837	1243.4	0.00080425	22.456	22.496	109.42	91.657	141.50	552.68	-0.090742	220.66	0.085444	0.0093617	23.758	0.042090	39.437	41.534	175.49	82.196	99.181	145.85	28.120	11.291	0.012862
16.000	0.50425	1239.8	0.00080657	22.596	22.638	109.91	91.792	141.86	548.07	-0.084468	217.93	0.085011	0.0092269	24.522	0.040780	39.492	41.590	175.45	82.509	99.747	145.73	27.848	11.330	0.012955
17.000	0.52052	1236.2	0.00080891	22.737	22.780	110.40	91.928	142.22	543.46	-0.078041	215.24	0.084579	0.0090925	25.305	0.039517	39.546	41.645	175.41	82.823	100.32	145.59	27.581	11.369	0.013049
18.000	0.53718	1232.6	0.00081128	22.878	22.923	110.88	92.065	142.59	538.84	-0.071455	212.58	0.084147	0.0089584	26.109	0.038301	39.600	41.699	175.37	83.138	100.90	145.45	27.320	11.409	0.013144
19.000	0.55424	1229.0	0.00081368	23.020	23.066	111.37	92.202	142.96	534.23	-0.064704	209.96	0.083715	0.0088248	26.934	0.037128	39.654	41.754	175.33	83.454	101.50	145.30	27.064	11.448	0.013239
20.000	0.57171	1225.3	0.00081610	23.161	23.209	111.85	92.340	143.34	529.61	-0.057783	207.37	0.083284	0.0086915	27.780	0.035997	39.708	41.807	175.30	83.771	102.10	145.15	26.813	11.488	0.013335
21.000	0.58959	1221.7	0.00081856	23.303	23.353	112.34	92.478	143.73	524.99	-0.050685	204.81	0.082854	0.0085587	28.648	0.034906	39.761	41.861	175.26	84.089	102.71	144.99	26.567	11.529	0.013431
22.000	0.60789	1218.0	0.00082105	23.446	23.497	112.82	92.617	144.12	520.36	-0.043405	202.28	0.082423	0.0084262	29.539	0.033854	39.814	41.914	175.22	84.409	103.33	144.82	26.327	11.569	0.013528
23.000	0.62662	1214.2	0.00082357	23.588	23.641	113.30	92.757	144.53	515.74	-0.035935	199.79	0.081993	0.0082941	30.452	0.032838	39.867	41.967	175.18	84.729	103.96	144.64	26.091	11.610	0.013626
24.000	0.64578	1210.5	0.00082612	23.732	23.786	113.79	92.898	144.94	511.10	-0.028269	197.32	0.081564	0.0081625	31.389	0.031858	39.920	42.019	175.15	85.051	104.61	144.45	25.861	11.651	0.013725
25.000	0.66538	1206.7	0.00082870	23.875	23.931	114.27	93.039	145.36	506.47	-0.020398	194.89	0.081134	0.0080312	32.350	0.030912	39.973	42.071	175.11	85.374	105.26	144.26	25.635	11.693	0.013825
26.000	0.68543	1202.9	0.00083131	24.019	24.077	114.75	93.181	145.78	501.83	-0.012316	192.48	0.080705	0.0079004	33.335	0.029998	40.025	42.123	175.07	85.698	105.93	144.05	25.414	11.735	0.013925
27.000	0.70592	1199.1	0.00083396	24.163	24.223	115.23	93.324	146.22	497.19	-0.0040136	190.10	0.080277	0.0077700	34.346	0.029115	40.077	42.174	175.04	86.023	106.60	143.84	25.198	11.777	0.014026
28.000	0.72688	1195.2	0.00083665	24.307	24.369	115.71	93.468	146.67	492.55	0.0045170	187.75	0.079848	0.0076400	35.382	0.028263	40.129	42.225	175.00	86.349	107.29	143.63	24.986	11.820	0.014129
29.000	0.74830	1191.4	0.00083937	24.452	24.516	116.19	93.612	147.12	487.90	0.013285	185.42	0.079420	0.0075104	36.445	0.027438	40.180	42.275	174.97	86.677	108.00	143.40	24.779	11.863	0.014232
30.000	0.77020	1187.5	0.00084213	24.597	24.663	116.67	93.758	147.59	483.24	0.022300	183.13	0.078992	0.0073813	37.535	0.026642	40.231	42.325	174.93	87.006	108.71	143.16	24.576	11.907	0.014336
31.000	0.79257	1183.5	0.00084493	24.743	24.811	117.15	93.904	148.06	478.58	0.031571	180.85	0.078564	0.0072526	38.653	0.025871	40.282	42.374	174.90	87.336	109.44	142.92	24.378	11.951	0.014441
32.000	0.81543	1179.6	0.00084777	24.889	24.959	117.63	94.051	148.55	473.92	0.041109	178.61	0.078136	0.0071244	39.799	0.025126	40.332	42.423	174.86	87.668	110.19	142.67	24.184	11.995	0.014548
33.000	0.83878	1175.6	0.00085065	25.035	25.108	118.11	94.199	149.05	469.25	0.050925	176.38	0.077709	0.0069966	40.974	0.024405	40.383	42.471	174.83	88.001	110.95	142.41	23.994	12.040	0.014655
34.000	0.86262	1171.6	0.00085357	25.182	25.257	118.59	94.347	149.56	464.58	0.061031	174.18	0.077281	0.0068692	42.180	0.023708	40.433	42.519	174.79	88.336	111.73	142.14	23.808	12.086	0.014764
35.000	0.88698	1167.5	0.00085653	25.329	25.407	119.07	94.497	150.08	459.90	0.071439	172.00	0.076853	0.0067423	43.416	0.023033	40.482	42.567	174.76	88.672	112.52	141.86	23.626	12.132	0.014874
36.000	0.91185	1163.4	0.00085954	25.477	25.557	119.55	94.648	150.61	455.22	0.082161	169.85	0.076426	0.0066159	44.683	0.022380	40.531	42.613	174.72	89.009	113.33	141.58	23.449	12.179	0.014986
37.000	0.93724	1159.3	0.00086259	25.625	25.707	120.03	94.799	151.16	450.53	0.093212	167.72	0.075998	0.0064899	45.983	0.021747	40.580	42.660	174.69	89.348	114.17	141.28	23.275	12.227	0.015098
38.000	0.96315	1155.1	0.00086569	25.773	25.858	120.51	94.952	151.72	445.83	0.10460	165.61	0.075571	0.0063645	47.316	0.021135	40.628	42.705	174.65	89.689	115.02	140.98	23.106	12.275	0.015213
39.000	0.98960	1151.0	0.00086884	25.922	26.010	120.99	95.105	152.30	441.13	0.11636	163.52	0.075143	0.0062394	48.683	0.020541	40.676	42.751	174.62	90.031	115.89	140.66	22.940	12.323	0.015329
40.000	1.0166	1146.7	0.00087204	26.071	26.162	121.47	95.260	152.89	436.43	0.12848	161.45	0.074716	0.0061149	50.085	0.019966	40.724	42.795	174.58	90.375	116.78	140.34	22.778	12.373	0.015446
41.000	1.0441	1142.5	0.00087529	26.221	26.315	121.95	95.416	153.49	431.71	0.14100	159.40	0.074288	0.0059909	51.523	0.019409	40.771	42.839	174.55	90.721	117.69	140.00	22.620	12.423	0.015566
42.000	1.0722	1138.2	0.00087859	26.372	26.468	122.42	95.573	154.11	426.99	0.15392	157.37	0.073860	0.0058673	52.998	0.018868	40.818	42.882	174.51	91.068	118.63	139.66	22.466	12.474	0.015687
43.000	1.1009	1133.8	0.00088195	26.522	26.621	122.90	95.731	154.75	422.26	0.16727	155.36	0.073432	0.0057443	54.512	0.018345	40.864	42.925	174.47	91.417	119.59	139.31	22.315	12.526	0.015810
44.000	1.1301	1129.5	0.00088537	26.674	26.776	123.38	95.890	155.41	417.53	0.18107	153.37	0.073003	0.0056218	56.064	0.017837	40.910	42.967	174.43	91.768	120.58	138.94	22.168	12.579	0.015935
45.000	1.1599	1125.1	0.00088885	26.825	26.931	123.86	96.051	156.09	412.79	0.19534	151.39	0.072575	0.0054998	57.657	0.017344	40.956	43.008	174.40	92.121	121.59	138.57	22.024	12.633	0.016062
46.000	1.1903	1120.6	0.00089238	26.978	27.086	124.34	96.213	156.79	408.04	0.21011	149.43	0.072146	0.0053783	59.292	0.016866	41.001	43.049	174.36	92.477	122.64	138.19	21.884	12.687	0.016191
47.000	1.2213	1116.1	0.00089598	27.131	27.242	124.82	96.376	157.51	403.28	0.22539	147.49	0.071717	0.0052573	60.969	0.016402	41.045	43.089	174.32	92.834	123.71	137.80	21.747	12.743	0.016323
48.000	1.2529	1111.5	0.00089965	27.284	27.399	125.30	96.541	158.25	398.51	0.24121	145.57	0.071287	0.0051369	62.690	0.015951	41.089	43.128	174.28	93.193	124.82	137.39	21.614	12.800	0.016458
49.000	1.2851	1106.9	0.00090338	27.438	27.556	125.78	96.706	159.01	393.74	0.25761	143.66	0.070857	0.0050170	64.458	0.015514	41.132	43.166	174.24	93.555	125.96	136.98	21.484	12.858	0.016595
50.000	1.3179	1102.3	0.00090719	27.592	27.714	126.26	96.874	159.80	388.96	0.27461	141.77	0.070427	0.0048977	66.272	0.015089	41.175	43.204	174.19	93.919	127.14	136.55	21.358	12.917	0.016734
51.000	1.3513	1097.6	0.00091107	27.747	27.873	126.74	97.043	160.61	384.16	0.29224	139.90	0.069996	0.0047790	68.134	0.014677	41.217	43.241	174.15	94.285	128.35	136.11	21.235	12.977	0.016877
52.000	1.3854	1092.9	0.00091502	27.903	28.032	127.22	97.214	161.45	379.36	0.31054	138.03	0.069565	0.0046608	70.047	0.014276	41.259	43.277	174.11	94.655	129.61	135.67	21.115	13.039	0.017023
53.000	1.4201	1088.1	0.00091905	28.059	28.192	127.70	97.386	162.32	374.54	0.32955	136.19	0.069133	0.0045432	72.012	0.013887	41.300	43.312	174.06	95.026	130.91	135.21	20.998	13.102	0.017172
54.000	1.4555	1083.2	0.00092317	28.216	28.353	128.19	97.560	163.22	369.72	0.34930	134.35	0.068700	0.0044262	74.030	0.013508	41.340	43.346	174.01	95.401	132.26	134.74	20.885	13.166	0.017324
55.000	1.4915	1078.3	0.00092737	28.374	28.515	128.67	97.736	164.16	364.88	0.36983	132.53	0.068267	0.0043097	76.104	0.013140	41.380	43.379	173.97	95.778	133.65	134.25	20.774	13.232	0.017481
56.000	1.5282	1073.4	0.00093166	28.532	28.677	129.15	97.914	165.12	360.03	0.39120	130.72	0.067834	0.0041939	78.235	0.012782	41.418	43.411	173.92	96.158	135.10	133.76	20.667	13.300	0.017641
57.000	1.5656	1068.3	0.00093604	28.691	28.840	129.64	98.094	166.13	355.17	0.41346	128.93	0.067399	0.0040787	80.426	0.012434	41.456	43.443	173.87	96.542	136.61	133.25	20.563	13.369	0.017805
58.000	1.6036	1063.2	0.00094052	28.850	29.004	130.12	98.276	167.17	350.29	0.43665	127.15	0.066964	0.0039642	82.679	0.012095	41.494	43.473	173.81	96.928	138.17	132.73	20.461	13.440	0.017974
59.000	1.6423	1058.1	0.00094510	29.011	29.169	130.61	98.461	168.26	345.40	0.46083	125.38	0.066528	0.0038502	84.996	0.011765	41.530	43.502	173.76	97.318	139.80	132.20	20.363	13.513	0.018147
60.000	1.6818	1052.9	0.00094979	29.172	29.335	131.09	98.648	169.39	340.49	0.48608	123.61	0.066091	0.0037370	87.379	0.011444	41.566	43.530	173.70	97.712	141.50	131.66	20.267	13.587	0.018326
61.000	1.7219	1047.6	0.00095459	29.334	29.501	131.58	98.837	170.57	335.57	0.51245	121.87	0.065654	0.0036244	89.832	0.011132	41.601	43.557	173.64	98.109	143.27	131.10	20.175	13.664	0.018510
62.000	1.7628	1042.2	0.00095950	29.496	29.669	132.07	99.030	171.80	330.63	0.54002	120.13	0.065215	0.0035124	92.358	0.010827	41.635	43.582	173.58	98.511	145.12	130.53	20.085	13.744	0.018699
63.000	1.8044	1036.8	0.00096454	29.660	29.837	132.56	99.225	173.08	325.67	0.56888	118.39	0.064776	0.0034012	94.958	0.010531	41.668	43.606	173.52	98.916	147.06	129.95	19.998	13.825	0.018894
64.000	1.8467	1031.2	0.00096970	29.824	30.007	133.05	99.423	174.43	320.69	0.59912	116.67	0.064336	0.0032906	97.637	0.010242	41.700	43.629	173.46	99.326	149.09	129.35	19.914	13.909	0.019096
65.000	1.8898	1025.6	0.00097500	29.989	30.177	133.54	99.625	175.84	315.69	0.63083	114.96	0.063894	0.0031808	100.40	0.0099604	41.730	43.651	173.39	99.740	151.23	128.74	19.832	13.996	0.019305
66.000	1.9337	1020.0	0.00098044	30.155	30.349	134.04	99.831	177.32	310.66	0.66413	113.26	0.063452	0.0030717	103.24	0.0096857	41.760	43.671	173.32	100.16	153.47	128.11	19.753	14.085	0.019521
67.000	1.9783	1014.2	0.00098602	30.322	30.521	134.53	100.04	178.87	305.61	0.69912	111.56	0.063009	0.0029633	106.18	0.0094179	41.789	43.690	173.24	100.58	155.84	127.47	19.676	14.178	0.019745
68.000	2.0237	1008.3	0.00099177	30.490	30.695	135.03	100.25	180.51	300.53	0.73596	109.87	0.062564	0.0028558	109.21	0.0091566	41.816	43.707	173.17	101.01	158.33	126.82	19.602	14.274	0.019978
69.000	2.0698	1002.3	0.00099768	30.660	30.870	135.53	100.47	182.23	295.43	0.77477	108.18	0.062118	0.0027490	112.34	0.0089016	41.842	43.722	173.09	101.45	160.97	126.15	19.530	14.373	0.020219
70.000	2.1168	996.25	0.0010038	30.830	31.047	136.03	100.70	184.06	290.29	0.81573	106.51	0.061672	0.0026429	115.57	0.0086527	41.867	43.736	173.01	101.89	163.77	125.46	19.460	14.475	0.020471
71.000	2.1646	990.06	0.0010100	31.001	31.224	136.53	100.92	185.99	285.12	0.85902	104.83	0.061224	0.0025378	118.91	0.0084095	41.890	43.748	172.92	102.34	166.74	124.76	19.392	14.582	0.020733
72.000	2.2132	983.76	0.0010165	31.174	31.403	137.03	101.16	188.04	279.91	0.90484	103.16	0.060775	0.0024334	122.37	0.0081720	41.912	43.758	172.83	102.79	169.90	124.05	19.327	14.693	0.021006
73.000	2.2627	977.33	0.0010232	31.347	31.584	137.54	101.40	190.22	274.67	0.95343	101.50	0.060324	0.0023299	125.95	0.0079399	41.933	43.766	172.73	103.25	173.27	123.31	19.263	14.808	0.021291
74.000	2.3130	970.78	0.0010301	31.522	31.765	138.05	101.65	192.54	269.38	1.0050	99.831	0.059873	0.0022273	129.65	0.0077129	41.951	43.771	172.63	103.72	176.87	122.56	19.201	14.928	0.021590
75.000	2.3641	964.09	0.0010372	31.699	31.949	138.56	101.91	195.03	264.05	1.0599	98.169	0.059421	0.0021256	133.49	0.0074910	41.968	43.775	172.53	104.20	180.74	121.80	19.141	15.053	0.021903
76.000	2.4161	957.25	0.0010447	31.877	32.134	139.08	102.17	197.70	258.67	1.1185	96.508	0.058967	0.0020249	137.48	0.0072737	41.983	43.776	172.42	104.68	184.90	121.01	19.082	15.184	0.022232
77.000	2.4690	950.26	0.0010523	32.056	32.321	139.60	102.45	200.57	253.24	1.1810	94.846	0.058513	0.0019251	141.62	0.0070611	41.995	43.774	172.31	105.18	189.39	120.21	19.025	15.321	0.022578
78.000	2.5228	943.10	0.0010603	32.237	32.510	140.12	102.74	203.67	247.75	1.2480	93.182	0.058058	0.0018263	145.93	0.0068527	42.006	43.770	172.19	105.68	194.26	119.39	18.968	15.464	0.022943
79.000	2.5776	935.77	0.0010686	32.420	32.701	140.65	103.04	207.03	242.20	1.3199	91.516	0.057602	0.0017285	150.41	0.0066486	42.014	43.763	172.06	106.20	199.54	118.55	18.912	15.615	0.023328
80.000	2.6332	928.24	0.0010773	32.605	32.894	141.18	103.35	210.68	236.59	1.3973	89.846	0.057147	0.0016318	155.08	0.0064483	42.020	43.753	171.92	106.72	205.31	117.69	18.856	15.773	0.023735
81.000	2.6898	920.51	0.0010863	32.791	33.089	141.71	103.68	214.67	230.91	1.4808	88.170	0.056691	0.0015362	159.95	0.0062519	42.023	43.739	171.78	107.26	211.64	116.81	18.801	15.940	0.024167
82.000	2.7473	912.56	0.0010958	32.980	33.287	142.25	104.02	219.06	225.16	1.5713	86.487	0.056235	0.0014418	165.05	0.0060589	42.023	43.722	171.63	107.82	218.61	115.91	18.745	16.116	0.024627
83.000	2.8058	904.37	0.0011057	33.171	33.488	142.79	104.39	223.91	219.32	1.6695	84.794	0.055781	0.0013485	170.38	0.0058692	42.020	43.701	171.47	108.39	226.33	115.00	18.688	16.302	0.025117
84.000	2.8653	895.91	0.0011162	33.365	33.691	143.35	104.77	229.30	213.41	1.7765	83.090	0.055329	0.0012565	175.97	0.0056827	42.014	43.675	171.30	108.97	234.93	114.05	18.630	16.500	0.025642
85.000	2.9258	887.16	0.0011272	33.561	33.898	143.90	105.18	235.33	207.40	1.8936	81.372	0.054880	0.0011657	181.85	0.0054990	42.004	43.645	171.12	109.57	244.58	113.09	18.569	16.711	0.026205
86.000	2.9874	878.10	0.0011388	33.760	34.107	144.47	105.61	242.12	201.31	2.0222	79.637	0.054435	0.0010763	188.05	0.0053178	41.989	43.610	170.93	110.19	255.48	112.10	18.505	16.936	0.026811
87.000	3.0499	868.68	0.0011512	33.963	34.321	145.04	106.08	249.85	195.11	2.1641	77.882	0.053997	0.00098836	194.59	0.0051390	41.970	43.569	170.72	110.84	267.91	111.09	18.437	17.178	0.027467
88.000	3.1136	858.86	0.0011643	34.169	34.539	145.63	106.58	258.73	188.81	2.3214	76.102	0.053568	0.00090189	201.52	0.0049623	41.946	43.522	170.50	111.51	282.20	110.06	18.364	17.437	0.028180
89.000	3.1783	848.60	0.0011784	34.380	34.762	146.22	107.12	269.05	182.40	2.4969	74.293	0.053153	0.00081699	208.89	0.0047872	41.916	43.468	170.26	112.20	298.82	108.99	18.285	17.718	0.028960
90.000	3.2442	837.83	0.0011936	34.595	34.990	146.83	107.70	281.19	175.87	2.6936	72.450	0.052755	0.00073378	216.76	0.0046134	41.879	43.406	170.00	112.93	318.41	107.90	18.196	18.023	0.029819
91.000	3.3112	826.47	0.0012100	34.815	35.224	147.45	108.34	295.72	169.21	2.9158	70.565	0.052383	0.00065237	225.20	0.0044404	41.835	43.335	169.72	113.69	341.85	106.78	18.097	18.357	0.030771
92.000	3.3793	814.43	0.0012279	35.042	35.465	148.09	109.04	313.43	162.43	3.1687	68.628	0.052047	0.00057288	234.31	0.0042678	41.781	43.253	169.42	114.49	370.40	105.62	17.983	18.725	0.031837
93.000	3.4487	801.58	0.0012475	35.276	35.714	148.75	109.80	335.54	155.50	3.4591	66.629	0.051762	0.00049548	244.22	0.0040947	41.718	43.159	169.08	115.34	405.98	104.43	17.852	19.133	0.033047
94.000	3.5193	787.75	0.0012694	35.518	35.974	149.43	110.65	363.94	148.42	3.7959	64.551	0.051551	0.00042037	255.08	0.0039203	41.642	43.050	168.70	116.25	451.57	103.19	17.698	19.593	0.034440
95.000	3.5912	772.70	0.0012942	35.772	36.246	150.14	111.60	401.85	141.17	4.1916	62.373	0.051450	0.00034779	267.14	0.0037434	41.550	42.922	168.28	117.23	512.15	101.91	17.513	20.117	0.036077
96.000	3.6645	756.09	0.0013226	36.040	36.535	150.90	112.68	455.09	133.73	4.6635	60.062	0.051514	0.00027805	280.73	0.0035621	41.438	42.770	167.79	118.29	596.66	100.57	17.287	20.727	0.038058
97.000	3.7391	737.34	0.0013562	36.328	36.845	151.71	113.92	535.42	126.07	5.2373	57.567	0.051838	0.00021157	296.41	0.0033737	41.300	42.587	167.22	119.46	722.95	99.152	17.003	21.455	0.040555
98.000	3.8152	715.51	0.0013976	36.644	37.188	152.61	115.40	670.71	118.13	5.9542	54.801	0.052609	0.00014895	315.13	0.0031733	41.122	42.357	166.54	120.79	932.59	97.633	16.632	22.359	0.043917
99.000	3.8929	688.60	0.0014522	37.006	37.583	153.64	117.23	946.07	109.83	6.8867	51.584	0.054302	9.1154e-05	338.85	0.0029512	40.881	42.053	165.65	122.34	1349.8	95.953	16.117	23.564	0.049000
100.00	3.9724	651.18	0.0015357	37.466	38.088	154.96	119.76	1794.9	100.96	8.1985	47.429	0.058883	3.9964e-05	373.01	0.0026809	40.510	41.597	164.37	124.28	2586.5	93.955	15.303	25.420	0.058976
